Sample:	'SLABO1-5-5-320
File name:	1H4.FD3
Run Date:	16:51:34, 08/15/2022
Operator:	Administrator
Comment:	'

Instrument
Model:	F-7000 FL Spectrophotometer
Serial Number:	2354-007
ROM Version:	5J14000 06

Instrument Parameters
Measurement type:	3-D Scan
Data mode:	Fluorescence
EX  Start WL:	200.0 nm
EX  End WL:	450.0 nm
EX Sampling Interval:	5.0 nm
EM  Start WL:	280.0 nm
EM  End WL:	550.0 nm
EM Sampling Interval:	5.0 nm
Scan speed:	12000 nm/min
EX Slit:	5.0 nm
EM Slit:	5.0 nm
PMT Voltage:	700 V
Response:	Auto 
Corrected spectra:	Off
Shutter control:	On
Contour interval:	25.000

Peak integration
Integration method:	Rectangular
Sensitivity:	1
Threshold:	1.000

Peaks
No.	ApexEX/EM(nm)	Height(Data)
1	205.0/315.0	962.5
2	205.0/335.0	899.1
3	210.0/345.0	887.6
4	210.0/375.0	853.8
5	210.0/390.0	877.2
6	210.0/540.0	194.0
7	215.0/305.0	721.2
8	215.0/370.0	913.9
9	215.0/385.0	892.7
10	215.0/455.0	835.3
11	220.0/320.0	952.0
12	220.0/335.0	 1059
13	220.0/360.0	990.0
14	220.0/400.0	 1173
15	220.0/410.0	 1272
16	220.0/505.0	459.4
17	220.0/535.0	227.0
18	220.0/545.0	211.5
19	225.0/325.0	 1007
20	225.0/340.0	 1070
21	225.0/380.0	 1075
22	225.0/425.0	 1254
23	230.0/375.0	970.4
24	230.0/415.0	 1321
25	230.0/430.0	 1302
26	230.0/440.0	 1237
27	230.0/540.0	249.5
28	235.0/365.0	919.5
29	235.0/395.0	 1128
30	235.0/435.0	 1302
31	240.0/390.0	 1013
32	240.0/425.0	 1291
33	245.0/410.0	 1240
34	250.0/450.0	 1301
35	255.0/400.0	 1206
36	255.0/415.0	 1376
37	255.0/455.0	 1287
38	260.0/425.0	 1412
39	270.0/435.0	 1458
40	275.0/305.0	 1028
41	275.0/440.0	 1454
42	280.0/310.0	 1275
43	280.0/320.0	 1118
44	280.0/340.0	 1128
45	280.0/355.0	 1099
46	280.0/365.0	 1095
47	285.0/315.0	 1176
48	305.0/340.0	649.5
49	310.0/345.0	613.1
50	315.0/355.0	619.1
51	320.0/360.0	692.2
52	320.0/420.0	 1478
53	325.0/365.0	783.6
54	325.0/415.0	 1468
55	330.0/370.0	858.9
56	335.0/425.0	 1508
57	365.0/290.0	20.66
58	420.0/350.0	18.11
59	425.0/320.0	13.29
60	435.0/325.0	12.04
61	445.0/290.0	6.214
62	445.0/330.0	12.15

Data Points
	200.0	205.0	210.0	215.0	220.0	225.0	230.0	235.0	240.0	245.0	250.0	255.0	260.0	265.0	270.0	275.0	280.0	285.0	290.0	295.0	300.0	305.0	310.0	315.0	320.0	325.0	330.0	335.0	340.0	345.0	350.0	355.0	360.0	365.0	370.0	375.0	380.0	385.0	390.0	395.0	400.0	405.0	410.0	415.0	420.0	425.0	430.0	435.0	440.0	445.0	450.0
280.0	76.49	31.35	25.07	30.29	4.946	17.24	2.731	2.360	7.093	24.87	31.77	54.74	37.60	20.92	13.50	 3503	9999.9	 8564	262.9	41.43	38.97	35.54	31.45	22.51	25.41	20.17	17.71	18.87	18.86	15.85	12.86	12.61	12.19	12.93	12.65	10.85	10.15	9.143	8.238	6.862	3.915	5.786	4.202	3.747	3.739	3.428	3.994	3.161	3.090	2.084	2.352
285.0	95.47	88.83	57.83	110.2	112.8	114.0	41.26	46.26	46.29	56.70	79.90	110.6	140.6	81.54	68.22	274.7	 7834	9999.9	9999.9	 1740	58.21	53.01	49.76	34.45	27.66	23.84	21.97	18.56	20.48	16.08	18.67	17.47	11.81	14.57	14.55	13.20	8.652	11.50	9.686	7.905	6.826	7.086	6.390	5.571	4.468	5.626	4.959	3.444	4.375	3.321	2.999
290.0	188.2	244.9	167.3	285.6	267.0	206.3	115.5	122.5	55.82	105.1	138.5	119.0	163.0	254.1	210.8	185.3	663.4	9999.9	9999.9	9999.9	 2311	93.49	72.86	55.28	44.77	37.01	26.54	20.00	23.45	21.18	18.01	17.19	15.52	20.66	15.09	14.71	12.59	11.65	9.783	8.757	8.617	6.600	6.570	7.440	4.266	6.028	5.391	4.079	4.774	6.214	3.284
295.0	412.9	420.2	353.0	418.0	378.7	460.9	279.4	186.5	127.4	138.6	149.1	189.4	186.1	367.0	455.0	402.1	402.1	932.9	9999.9	9999.9	9999.9	 3030	106.8	89.41	73.20	54.85	42.66	33.84	26.89	26.31	22.40	20.20	18.32	17.79	16.48	17.34	13.76	12.15	10.00	10.12	8.529	8.079	8.019	6.141	5.824	5.671	6.260	5.422	4.512	4.833	4.221
300.0	577.7	551.0	567.5	574.1	562.7	616.3	415.8	287.6	197.8	174.6	221.6	254.6	244.9	387.2	593.8	810.5	600.9	474.4	902.8	9999.9	9999.9	9999.9	 3196	128.5	103.1	78.86	62.40	50.12	37.69	30.61	26.47	23.90	20.33	22.70	20.78	17.42	15.88	14.60	10.36	11.50	11.34	10.61	7.564	8.393	8.672	6.942	7.030	6.401	6.951	6.493	6.258
305.0	731.9	536.9	544.6	721.2	670.3	713.0	580.2	356.1	314.0	233.0	243.7	292.6	327.8	458.5	647.5	 1028	 1004	617.4	355.5	859.1	9999.9	9999.9	9999.9	 3721	147.2	119.7	89.59	69.32	48.90	37.74	33.02	26.85	29.13	23.91	23.60	20.70	18.76	16.80	14.82	12.63	13.07	12.70	8.641	9.812	8.674	8.464	6.024	6.925	7.252	7.184	5.955
310.0	808.3	811.6	678.3	586.6	758.6	786.4	644.0	509.2	372.6	296.9	269.7	341.8	420.6	525.8	668.2	977.5	 1275	877.6	396.9	301.3	866.9	9999.9	9999.9	9999.9	 3936	170.7	130.9	100.5	75.19	50.02	41.24	33.61	31.04	26.74	23.99	21.56	16.18	16.70	15.38	17.25	12.85	11.29	11.97	8.935	8.706	9.240	8.704	8.482	8.026	8.031	6.341
315.0	911.5	962.5	829.2	769.8	792.7	897.6	767.5	669.6	398.1	367.2	339.5	418.9	486.9	607.0	842.2	966.2	 1105	 1176	582.1	285.6	268.6	866.1	9999.9	9999.9	9999.9	 3431	190.6	135.2	107.9	80.30	61.12	44.02	40.63	32.07	31.67	24.63	20.94	22.44	17.28	16.96	13.92	13.52	11.55	12.02	11.29	9.507	8.701	8.723	7.770	8.117	7.776
320.0	921.5	697.2	825.3	862.7	952.0	907.1	786.1	570.0	462.9	404.1	430.1	467.3	528.7	640.7	856.8	 1064	 1118	 1055	941.7	453.2	255.9	257.9	888.7	9999.9	9999.9	9999.9	 3523	212.9	145.1	112.4	86.42	56.00	48.29	38.45	34.06	28.54	19.61	20.90	18.32	19.59	14.95	14.00	12.46	11.21	12.48	13.29	9.805	9.567	8.013	8.452	8.056
325.0	986.8	801.4	826.5	760.0	881.5	 1007	879.7	672.5	482.9	450.9	463.3	523.1	567.3	681.6	821.5	 1082	 1111	997.7	876.9	759.1	358.2	227.0	253.8	890.6	9999.9	9999.9	9999.9	 3819	236.9	149.7	119.3	92.22	62.05	48.19	39.00	33.61	27.12	20.75	19.50	18.76	15.77	17.12	13.29	12.59	12.19	13.06	10.42	12.04	9.233	7.865	8.637
330.0	811.6	726.5	760.7	869.7	910.3	972.0	951.7	733.0	528.6	507.1	498.5	507.3	584.1	679.3	874.8	 1092	 1074	 1015	769.7	755.7	605.8	260.6	212.4	244.5	871.2	9999.9	9999.9	9999.9	 3853	234.3	169.0	123.7	97.91	71.49	49.89	37.91	34.81	26.67	23.78	19.35	19.00	16.22	12.84	14.45	14.30	10.33	11.36	11.62	11.79	12.15	9.252
335.0	720.6	899.1	840.7	796.0	 1059	992.6	958.6	745.1	571.1	531.8	513.7	552.8	624.4	702.2	856.8	 1112	 1109	 1027	810.5	614.1	671.9	479.0	232.4	203.9	225.7	887.2	9999.9	9999.9	9999.9	 4066	247.6	177.2	127.8	95.66	73.56	48.77	39.03	32.29	25.02	20.54	19.84	17.72	14.70	14.23	14.35	12.08	11.55	10.09	10.92	9.144	9.474
340.0	810.5	707.2	823.6	898.7	887.6	 1070	935.9	743.5	610.7	542.1	554.6	555.6	615.0	695.1	873.9	 1122	 1128	 1032	807.7	595.5	535.3	649.5	400.1	241.9	209.2	262.8	887.2	9999.9	9999.9	9999.9	 4491	272.3	189.1	136.0	108.3	75.28	48.86	42.56	29.84	24.11	21.21	16.36	17.71	17.05	13.92	15.28	10.88	11.48	9.950	12.71	9.612
345.0	824.6	824.0	887.6	786.8	851.3	 1060	945.2	701.3	628.4	566.6	563.6	593.7	628.0	720.8	900.8	 1038	 1051	 1046	885.2	646.6	497.4	492.5	613.1	363.0	232.8	234.6	270.2	901.0	9999.9	9999.9	9999.9	 4899	274.8	197.8	135.1	106.9	69.69	53.25	39.11	28.56	23.04	18.27	17.00	16.33	14.79	11.80	13.24	12.90	11.39	12.17	10.88
350.0	920.1	834.8	649.7	758.3	805.7	827.4	875.4	736.3	677.8	610.5	579.1	592.3	621.9	732.4	887.3	 1031	 1061	 1056	884.9	693.9	541.2	467.9	512.9	605.4	353.0	298.5	254.9	290.9	918.9	9999.9	9999.9	9999.9	 5099	280.3	206.0	137.6	97.30	64.96	47.68	36.49	26.47	24.75	19.08	17.09	18.11	14.33	12.59	13.24	12.95	10.80	11.80
355.0	805.0	712.7	776.9	738.2	975.5	920.7	914.9	721.7	682.9	659.8	640.4	625.4	663.8	697.9	816.8	977.4	 1099	 1016	897.4	745.1	584.3	504.9	489.9	619.1	618.0	368.9	320.6	293.7	318.3	919.4	9999.9	9999.9	9999.9	 5366	293.0	207.6	137.1	97.61	64.61	43.68	34.33	29.45	22.61	16.83	17.09	15.07	14.88	11.36	12.10	10.74	12.59
360.0	829.7	786.0	834.0	808.7	990.0	866.9	838.9	729.2	608.7	680.7	633.7	687.7	641.9	797.4	899.9	933.4	 1063	 1020	937.1	762.5	664.9	603.9	551.8	545.7	692.2	604.4	407.4	354.5	315.4	317.5	932.9	9999.9	9999.9	9999.9	 5181	287.5	195.4	126.8	91.64	65.03	44.57	30.62	27.80	20.68	17.28	14.64	12.70	13.14	11.40	11.12	11.54
365.0	900.5	715.8	780.0	905.4	936.7	927.4	857.5	919.5	705.1	694.1	696.8	714.5	665.2	753.9	859.2	993.0	 1095	 1077	971.9	825.2	707.9	657.7	634.3	581.8	622.6	783.6	613.2	460.2	392.3	324.8	314.6	917.1	9999.9	9999.9	9999.9	 5730	277.8	190.6	121.1	87.03	62.23	41.83	32.74	23.00	19.67	16.40	14.66	12.90	12.40	13.67	12.05
370.0	694.2	645.5	671.6	913.9	859.3	863.0	815.5	854.3	720.1	785.2	775.9	748.3	803.8	804.4	929.8	993.4	 1055	 1059	 1025	892.6	772.4	717.7	699.6	694.3	696.5	731.0	858.9	624.1	466.9	388.0	326.9	325.5	917.6	9999.9	9999.9	9999.9	 5647	261.6	177.3	110.5	85.51	60.29	37.21	30.53	23.02	19.96	17.21	14.77	13.51	12.95	11.62
375.0	686.4	741.0	853.8	667.3	929.9	967.7	970.4	783.7	848.9	769.0	812.7	775.6	808.2	876.6	921.8	 1063	 1104	 1075	 1040	901.6	823.2	800.6	796.9	824.3	802.8	763.9	849.2	854.5	617.7	472.7	391.0	335.4	340.1	921.0	9999.9	9999.9	9999.9	 6128	251.0	166.8	111.2	79.98	52.66	37.76	31.09	29.03	18.87	16.63	11.87	12.98	11.36
380.0	686.1	744.8	744.6	858.1	923.7	 1075	932.8	856.8	915.4	889.0	845.6	864.4	839.2	880.1	976.0	 1032	 1108	 1056	 1082	983.9	902.3	884.9	877.8	888.4	890.3	888.9	858.1	915.8	855.0	570.1	472.5	402.7	338.4	324.4	924.7	9999.9	9999.9	9999.9	 5486	228.5	160.9	100.0	73.16	50.16	37.64	27.38	23.04	18.96	13.35	14.15	13.22
385.0	751.1	596.3	670.2	892.7	834.0	901.4	926.2	938.9	962.8	915.9	842.3	909.4	913.2	958.3	 1024	 1070	 1135	 1127	 1078	 1030	965.8	952.7	975.6	997.4	982.4	978.9	935.0	904.0	974.4	812.6	607.1	493.5	417.4	343.8	318.7	901.0	9999.9	9999.9	9999.9	 5555	221.3	155.6	95.23	75.61	53.88	34.52	27.60	21.41	18.21	13.60	12.87
390.0	582.5	851.0	877.2	813.8	823.2	980.9	974.5	921.3	 1013	962.6	933.4	900.9	886.1	989.2	 1067	 1116	 1144	 1126	 1158	 1097	 1028	 1040	 1086	 1092	 1098	 1064	 1047	989.3	953.1	 1002	776.3	586.4	503.1	414.3	333.2	322.8	886.9	9999.9	9999.9	9999.9	 5208	204.4	135.2	89.90	66.83	50.29	35.47	23.05	19.93	17.32	13.77
395.0	695.6	675.8	865.2	782.2	 1102	 1081	 1099	 1128	966.6	 1040	 1054	950.7	 1054	 1106	 1143	 1183	 1172	 1186	 1153	 1103	 1103	 1136	 1161	 1197	 1197	 1161	 1146	 1084	 1029	 1004	 1018	786.3	613.7	518.8	422.0	340.0	303.3	883.9	9999.9	9999.9	9999.9	 5279	199.7	134.4	87.95	66.14	48.90	32.57	23.81	19.22	17.65
400.0	708.8	706.3	682.0	934.8	 1173	 1157	 1165	 1050	 1126	 1104	 1150	 1206	 1163	 1139	 1177	 1226	 1250	 1236	 1193	 1156	 1192	 1181	 1228	 1270	 1318	 1269	 1259	 1192	 1136	 1041	 1044	966.4	743.3	625.1	514.8	406.6	316.6	289.1	866.7	9999.9	9999.9	9999.9	 4643	180.6	117.6	84.19	55.49	42.28	32.91	26.81	20.87
405.0	521.3	743.8	664.7	 1057	 1127	 1125	 1137	 1054	 1127	 1169	 1172	 1106	 1229	 1178	 1239	 1262	 1293	 1215	 1225	 1208	 1203	 1270	 1275	 1343	 1376	 1355	 1346	 1287	 1246	 1176	 1063	 1060	964.0	751.0	616.3	476.2	380.2	304.9	277.8	838.1	9999.9	9999.9	9999.9	 4304	171.6	104.9	74.04	53.96	43.85	28.14	21.52
410.0	689.4	744.9	795.1	968.1	 1272	 1158	 1172	 1126	 1187	 1240	 1234	 1159	 1318	 1297	 1265	 1309	 1306	 1282	 1274	 1217	 1227	 1268	 1325	 1390	 1415	 1439	 1421	 1370	 1350	 1233	 1130	 1057	 1112	931.4	747.9	567.7	456.3	346.0	279.2	267.9	819.3	9999.9	9999.9	9999.9	 3939	161.3	107.6	66.97	49.05	39.27	28.45
415.0	679.5	541.2	786.4	920.7	 1082	 1105	 1321	 1291	 1228	 1190	 1311	 1376	 1366	 1326	 1344	 1337	 1335	 1325	 1265	 1206	 1249	 1296	 1373	 1388	 1426	 1468	 1468	 1444	 1391	 1304	 1215	 1151	 1088	 1088	884.6	690.6	522.8	423.2	334.0	243.3	242.1	815.0	9999.9	9999.9	9999.9	 4081	148.0	91.73	63.37	51.30	34.78
420.0	594.0	730.3	767.3	848.1	 1108	 1092	 1200	 1210	 1259	 1280	 1362	 1371	 1373	 1315	 1372	 1395	 1347	 1331	 1288	 1264	 1249	 1290	 1345	 1420	 1478	 1434	 1504	 1460	 1417	 1366	 1289	 1209	 1137	 1083	 1022	789.0	605.9	478.1	366.0	283.2	220.6	231.1	794.5	9999.9	9999.9	9999.9	 3502	137.5	92.87	65.86	45.35
425.0	691.8	687.9	865.2	805.6	 1119	 1254	 1171	 1247	 1291	 1263	 1297	 1346	 1412	 1389	 1413	 1383	 1370	 1350	 1269	 1263	 1220	 1260	 1353	 1383	 1442	 1444	 1505	 1508	 1440	 1386	 1322	 1245	 1184	 1085	 1056	932.1	692.7	543.8	414.4	330.3	251.9	208.9	207.6	779.3	9999.9	9999.9	9999.9	 3031	123.2	85.37	55.53
430.0	665.5	725.9	780.8	867.6	884.1	 1095	 1302	 1271	 1268	 1327	 1333	 1337	 1312	 1440	 1441	 1407	 1394	 1293	 1239	 1225	 1190	 1248	 1340	 1385	 1404	 1436	 1464	 1456	 1425	 1384	 1345	 1255	 1214	 1133	 1043	975.5	804.7	598.7	491.5	376.9	292.8	238.4	186.1	193.3	782.1	9999.9	9999.9	9999.9	 2719	121.5	78.00
435.0	730.8	636.2	741.9	822.6	 1066	988.2	 1159	 1302	 1244	 1307	 1298	 1261	 1409	 1445	 1458	 1446	 1349	 1346	 1280	 1209	 1183	 1200	 1257	 1300	 1357	 1402	 1442	 1417	 1400	 1388	 1342	 1288	 1210	 1170	 1046	958.7	871.4	702.0	525.2	421.5	328.7	258.5	200.3	174.5	186.9	773.9	9999.9	9999.9	9999.9	 2656	114.0
440.0	537.3	495.7	674.5	828.5	 1067	952.6	 1237	 1127	 1159	 1255	 1224	 1292	 1397	 1376	 1407	 1454	 1420	 1303	 1219	 1149	 1158	 1185	 1223	 1299	 1340	 1361	 1382	 1380	 1387	 1350	 1287	 1261	 1199	 1152	 1092	961.2	870.2	773.4	579.3	467.6	371.6	284.4	235.7	198.5	162.4	182.1	766.5	9999.9	9999.9	9999.9	 2339
445.0	575.9	406.0	702.1	795.0	896.6	963.4	 1148	 1112	 1149	 1189	 1216	 1268	 1367	 1406	 1382	 1354	 1373	 1304	 1205	 1144	 1115	 1149	 1183	 1218	 1280	 1312	 1337	 1344	 1338	 1313	 1264	 1237	 1205	 1147	 1089	956.4	832.7	783.2	654.2	509.7	409.8	322.5	254.4	220.9	180.7	144.6	170.8	760.7	9999.9	9999.9	9999.9
450.0	448.8	578.5	653.6	696.5	866.5	861.0	 1003	 1085	 1088	 1192	 1301	 1254	 1315	 1337	 1332	 1306	 1346	 1240	 1115	 1085	 1029	 1050	 1151	 1159	 1217	 1217	 1280	 1274	 1252	 1270	 1216	 1195	 1157	 1095	 1059	950.5	848.8	747.9	695.8	581.1	435.4	360.0	295.7	241.4	195.0	163.8	140.7	166.1	750.7	9999.9	9999.9
455.0	673.5	623.1	632.5	835.3	785.1	881.7	 1017	966.2	 1023	 1135	 1157	 1287	 1193	 1295	 1345	 1287	 1323	 1167	 1073	 1020	 1017	 1003	 1054	 1091	 1135	 1162	 1190	 1171	 1208	 1162	 1142	 1138	 1084	 1090	 1012	931.2	828.7	738.6	655.7	587.7	485.9	381.5	315.9	272.1	220.2	186.8	149.9	119.9	156.4	747.4	9999.9
460.0	666.2	512.6	575.0	627.0	769.2	762.4	944.0	916.5	967.6	 1045	 1054	 1065	 1143	 1213	 1264	 1280	 1268	 1137	 1100	986.1	955.3	965.2	973.2	 1026	 1056	 1094	 1114	 1129	 1120	 1079	 1107	 1086	 1082	 1048	984.3	897.8	814.6	713.5	632.9	569.4	520.4	398.3	334.0	282.3	228.8	197.4	166.7	144.5	123.5	148.2	730.3
465.0	553.2	506.0	558.7	726.7	779.2	800.6	824.9	988.8	928.1	 1017	 1022	 1020	 1114	 1089	 1187	 1191	 1165	 1087	 1035	950.8	904.7	942.6	933.2	949.2	958.5	976.8	 1013	 1036	 1030	 1058	 1020	997.9	 1009	973.5	933.4	878.8	787.2	698.4	610.1	541.9	518.1	449.7	359.0	298.0	245.4	217.7	177.6	154.9	132.1	114.5	148.9
470.0	398.0	517.9	478.0	542.6	754.1	730.9	810.6	902.1	888.8	915.9	964.8	928.7	 1022	 1047	 1111	 1108	 1116	 1019	970.6	912.4	854.6	828.1	850.6	881.9	911.9	919.1	950.0	957.5	967.3	957.0	949.8	942.6	933.8	932.4	897.0	841.8	753.0	666.4	571.9	514.7	463.4	450.5	384.6	316.5	263.6	228.7	192.7	164.0	135.5	118.9	105.1
475.0	274.1	522.1	464.3	673.1	699.3	563.9	655.5	753.7	803.9	842.9	893.1	908.9	949.2	 1053	 1061	 1066	 1026	939.9	861.4	821.2	789.8	783.4	775.3	790.9	790.0	816.7	836.0	875.4	877.8	874.7	866.0	855.1	856.4	856.8	817.6	775.1	714.3	642.8	564.0	503.7	457.7	416.8	391.5	339.5	266.9	223.1	207.3	170.5	145.6	118.2	102.0
480.0	486.8	346.2	406.7	479.2	512.5	646.2	658.7	608.6	708.1	801.2	834.8	852.0	876.1	899.6	945.9	 1020	 1030	918.1	808.2	755.3	732.4	695.4	729.4	723.8	714.1	768.4	795.0	794.6	827.7	789.7	785.0	798.1	797.5	799.4	778.5	731.6	678.6	615.8	545.9	492.4	435.6	393.6	371.4	349.6	284.7	230.5	210.0	178.2	155.5	132.1	111.2
485.0	422.0	276.2	299.7	342.1	511.6	556.6	590.4	636.7	692.8	700.0	815.9	763.0	828.2	920.0	903.1	981.0	888.5	862.2	811.9	712.6	674.6	678.9	658.0	670.5	681.8	728.4	715.3	751.1	719.3	752.3	725.1	744.2	727.4	750.3	724.1	675.9	641.4	578.6	529.5	466.7	433.5	390.8	343.4	337.2	302.1	251.7	212.5	185.0	159.8	137.1	117.9
490.0	499.7	344.4	359.3	380.1	400.3	451.7	515.2	598.7	625.5	706.9	726.9	689.2	742.8	857.1	885.3	901.3	898.9	846.4	736.3	684.9	641.3	618.5	623.7	622.7	647.3	661.3	688.4	670.5	667.0	702.4	688.3	689.1	683.1	696.7	677.9	651.6	609.3	558.8	505.5	455.7	418.0	370.8	331.9	309.6	308.3	269.4	225.4	195.8	174.4	150.4	123.2
495.0	199.9	323.3	295.8	269.4	456.7	444.4	545.3	561.7	582.7	626.1	650.1	700.2	756.0	753.9	780.1	849.6	851.4	752.3	703.5	652.7	586.5	608.4	586.4	595.8	580.3	606.0	612.8	626.6	617.8	629.5	641.2	629.6	654.7	655.5	646.9	600.0	573.8	521.5	484.6	433.3	403.1	356.8	332.7	311.2	275.7	269.0	229.8	187.0	167.9	145.6	127.7
500.0	346.2	291.4	414.3	385.1	452.3	459.1	477.0	506.6	510.2	569.9	685.1	605.1	666.9	696.4	707.6	737.5	770.1	713.1	664.6	611.8	545.7	538.2	528.5	541.4	543.7	561.5	562.9	563.1	593.0	575.0	580.5	560.2	593.6	603.3	596.7	557.0	526.3	483.9	454.5	409.2	381.4	351.3	315.7	291.5	263.4	252.7	242.9	196.5	176.3	149.6	129.1
505.0	260.0	222.3	306.9	275.6	459.4	393.6	399.2	479.0	452.9	501.7	569.6	610.2	605.5	669.7	695.6	730.3	703.6	630.7	606.1	574.9	525.1	500.8	507.6	510.4	497.4	527.3	510.4	527.4	536.8	533.2	529.0	523.7	543.0	538.7	528.3	512.7	470.4	458.6	424.4	390.6	346.2	333.9	301.5	278.4	251.4	233.1	231.2	211.6	183.5	160.9	129.9
510.0	187.6	213.8	264.9	269.3	333.1	383.9	372.5	425.3	423.6	470.0	535.3	507.0	525.6	616.6	610.5	639.7	649.3	592.4	573.1	505.4	503.9	492.3	461.3	463.8	481.2	476.4	472.5	477.0	474.8	480.8	484.1	476.6	472.5	497.9	487.1	457.1	441.8	415.2	373.8	355.9	335.3	309.1	278.5	258.3	249.1	225.1	209.2	211.2	185.9	159.4	137.8
515.0	163.8	259.7	206.8	283.0	316.4	380.8	372.5	380.8	394.3	459.3	424.5	462.1	514.6	545.0	565.8	585.0	563.0	530.4	502.9	474.4	418.6	433.3	408.5	434.9	438.0	437.2	408.7	434.2	427.0	421.5	439.4	443.9	443.9	448.3	449.0	436.6	410.4	404.2	346.1	318.2	309.7	290.2	252.5	251.9	237.5	213.4	192.5	186.8	183.1	155.1	128.7
520.0	188.2	222.4	209.5	231.9	251.0	256.2	288.8	290.1	373.6	410.7	414.9	469.0	452.6	483.2	519.0	523.2	501.9	485.5	452.4	406.7	405.2	381.3	381.0	399.4	392.3	377.4	386.9	388.7	394.8	404.3	393.3	376.9	398.2	403.7	401.5	384.0	374.0	352.1	316.3	294.7	283.3	258.9	251.6	226.4	207.5	201.9	184.7	168.9	166.4	161.6	135.1
525.0	209.5	189.7	138.9	217.6	230.4	258.9	274.9	323.2	316.1	350.4	403.5	429.4	400.5	474.4	489.6	506.2	450.0	488.4	419.0	383.6	360.1	363.2	361.4	343.8	345.0	340.3	343.5	343.7	351.3	351.3	358.8	355.6	372.1	360.6	357.7	367.1	343.6	311.5	294.2	280.7	265.3	240.2	222.3	213.8	189.9	175.9	174.6	158.4	153.0	145.0	134.4
530.0	136.2	207.1	188.7	219.4	193.9	249.9	267.7	286.2	342.7	318.5	335.6	371.9	368.6	415.2	440.6	447.9	449.3	418.8	386.8	342.6	336.5	312.4	322.4	296.6	304.8	303.4	308.0	333.1	320.0	314.9	317.9	321.2	327.1	326.6	327.0	324.0	288.4	288.9	266.8	261.2	242.8	216.2	206.2	198.3	185.4	167.9	157.1	148.7	140.8	135.2	135.8
535.0	118.5	104.8	167.9	141.4	227.0	214.6	183.7	249.9	280.7	283.1	301.0	321.4	342.8	346.8	390.6	406.7	381.9	376.4	353.2	328.7	286.8	297.9	271.8	285.0	288.7	295.8	297.6	286.8	281.5	289.6	286.0	287.6	304.5	305.1	296.8	282.7	280.0	264.7	235.5	225.1	214.9	204.9	189.5	177.5	170.3	158.1	143.6	140.7	125.3	124.2	119.3
540.0	130.6	157.4	194.0	112.7	147.7	189.2	249.5	195.3	212.2	262.1	245.9	290.8	305.5	336.8	445.7	417.7	355.2	338.4	310.7	279.1	272.5	266.6	262.4	243.3	237.4	237.2	254.6	224.6	248.2	252.0	245.5	259.3	256.3	260.5	262.9	244.7	244.0	231.9	207.7	196.4	200.3	184.9	173.3	158.8	143.7	143.0	134.8	124.1	113.7	107.8	95.16
545.0	95.39	109.9	68.38	158.9	211.5	173.5	168.2	194.3	204.4	223.5	243.7	252.0	292.0	304.9	444.6	590.7	367.1	296.7	273.6	259.3	252.1	232.6	235.9	233.4	214.1	231.6	216.2	220.3	203.4	225.1	224.8	216.4	225.7	236.4	230.2	229.4	211.4	207.9	196.0	183.2	174.6	167.8	156.5	149.5	134.3	132.9	119.5	118.5	107.8	102.8	90.14
550.0	200.2	62.68	86.76	94.88	118.8	134.9	189.9	181.5	208.2	215.8	219.4	234.8	278.6	288.1	328.8	 1127	565.0	287.4	265.5	239.2	234.9	204.3	198.2	202.3	191.1	205.4	199.4	201.0	194.4	199.4	197.8	203.0	212.1	220.4	193.1	203.5	196.4	183.2	174.6	166.9	158.6	149.9	137.2	135.6	124.7	121.2	112.5	104.4	102.8	96.24	83.70
