Sample:	'SLABO1-5-5-320
File name:	1H5.FD3
Run Date:	16:55:45, 08/15/2022
Operator:	Administrator
Comment:	'

Instrument
Model:	F-7000 FL Spectrophotometer
Serial Number:	2354-007
ROM Version:	5J14000 06

Instrument Parameters
Measurement type:	3-D Scan
Data mode:	Fluorescence
EX  Start WL:	200.0 nm
EX  End WL:	450.0 nm
EX Sampling Interval:	5.0 nm
EM  Start WL:	280.0 nm
EM  End WL:	550.0 nm
EM Sampling Interval:	5.0 nm
Scan speed:	12000 nm/min
EX Slit:	5.0 nm
EM Slit:	5.0 nm
PMT Voltage:	700 V
Response:	Auto 
Corrected spectra:	Off
Shutter control:	On
Contour interval:	25.000

Peak integration
Integration method:	Rectangular
Sensitivity:	1
Threshold:	1.000

Peaks
No.	ApexEX/EM(nm)	Height(Data)
1	205.0/340.0	 1258
2	205.0/360.0	960.7
3	205.0/435.0	793.4
4	205.0/455.0	887.3
5	205.0/490.0	429.5
6	210.0/440.0	824.8
7	210.0/545.0	218.8
8	215.0/390.0	 1097
9	215.0/405.0	970.6
10	215.0/505.0	398.3
11	215.0/520.0	296.2
12	220.0/335.0	 1048
13	220.0/375.0	882.6
14	220.0/385.0	996.2
15	220.0/420.0	977.9
16	220.0/485.0	541.0
17	220.0/510.0	346.4
18	220.0/530.0	257.2
19	225.0/315.0	898.1
20	225.0/360.0	967.3
21	225.0/400.0	 1072
22	225.0/425.0	969.4
23	225.0/495.0	504.1
24	225.0/540.0	194.1
25	230.0/355.0	850.6
26	230.0/410.0	964.2
27	230.0/445.0	921.3
28	235.0/370.0	786.9
29	235.0/385.0	829.2
30	235.0/405.0	955.5
31	235.0/500.0	469.6
32	240.0/375.0	807.5
33	240.0/435.0	 1071
34	245.0/365.0	698.9
35	245.0/455.0	955.9
36	250.0/380.0	798.9
37	250.0/410.0	 1018
38	250.0/425.0	 1079
39	250.0/460.0	924.8
40	255.0/435.0	 1073
41	260.0/415.0	 1083
42	270.0/440.0	 1213
43	275.0/305.0	999.0
44	275.0/370.0	862.8
45	275.0/430.0	 1272
46	275.0/445.0	 1217
47	280.0/310.0	 1192
48	280.0/325.0	972.4
49	280.0/340.0	922.4
50	280.0/360.0	857.1
51	280.0/420.0	 1198
52	280.0/435.0	 1238
53	285.0/315.0	 1099
54	285.0/365.0	880.3
55	285.0/380.0	925.2
56	300.0/335.0	604.9
57	305.0/340.0	576.3
58	310.0/345.0	562.1
59	315.0/350.0	582.0
60	320.0/360.0	640.6
61	320.0/425.0	 1167
62	325.0/365.0	700.7
63	325.0/420.0	 1164
64	325.0/430.0	 1162
65	330.0/370.0	758.1
66	330.0/425.0	 1174
67	335.0/380.0	789.2
68	335.0/435.0	 1151
69	340.0/385.0	844.5
70	415.0/310.0	16.80
71	430.0/305.0	10.49
72	440.0/340.0	14.77

Data Points
	200.0	205.0	210.0	215.0	220.0	225.0	230.0	235.0	240.0	245.0	250.0	255.0	260.0	265.0	270.0	275.0	280.0	285.0	290.0	295.0	300.0	305.0	310.0	315.0	320.0	325.0	330.0	335.0	340.0	345.0	350.0	355.0	360.0	365.0	370.0	375.0	380.0	385.0	390.0	395.0	400.0	405.0	410.0	415.0	420.0	425.0	430.0	435.0	440.0	445.0	450.0
280.0	83.28	1.188	36.19	42.91	13.91	23.24	4.555	0.279	7.906	20.18	51.92	63.38	34.35	18.22	16.65	 3841	9999.9	 9525	269.1	43.78	47.49	50.07	36.31	33.44	22.99	26.20	22.52	22.67	16.24	16.01	17.10	19.56	17.04	17.66	15.18	15.46	13.47	11.47	12.77	10.48	7.401	9.865	7.330	7.383	6.380	4.611	5.926	4.381	4.946	4.349	3.807
285.0	219.0	81.55	69.41	193.7	154.2	105.4	55.89	48.41	48.23	70.71	87.09	104.4	126.9	104.0	69.93	300.4	 8491	9999.9	9999.9	 1952	70.51	68.03	57.76	43.65	32.88	31.13	26.09	27.62	24.58	20.73	20.30	19.03	19.27	17.43	22.67	18.90	14.92	14.00	13.24	10.40	11.22	8.470	7.312	7.110	7.058	6.338	6.725	5.353	5.606	5.324	4.160
290.0	293.0	258.4	262.5	311.6	217.1	299.7	200.7	99.20	92.13	132.1	131.5	143.9	152.1	231.6	191.8	186.5	678.0	9999.9	9999.9	9999.9	 2671	92.70	85.85	67.34	55.04	39.48	37.15	32.20	28.60	24.45	27.17	22.84	20.14	20.88	21.20	19.34	16.07	16.06	15.82	11.56	11.13	10.01	7.887	9.175	8.187	6.256	7.096	6.687	5.546	5.496	4.907
295.0	455.7	518.4	377.8	505.1	390.3	489.5	305.4	193.4	131.9	168.8	196.7	155.4	210.7	322.9	471.6	355.4	351.1	922.7	9999.9	9999.9	9999.9	 3498	134.2	98.84	89.39	66.85	44.12	45.10	31.38	30.10	29.57	23.42	26.56	19.15	22.81	20.31	16.65	16.20	14.36	13.83	12.40	12.50	10.72	8.454	7.577	7.763	7.440	6.681	8.169	6.482	6.254
300.0	715.6	573.4	544.9	702.5	635.7	537.4	491.8	318.2	213.3	225.9	215.7	224.9	268.9	346.2	623.4	733.0	577.3	448.1	894.5	9999.9	9999.9	9999.9	 3772	144.3	126.7	93.24	68.65	55.54	43.88	37.93	32.55	33.44	27.68	26.96	25.56	22.72	22.47	17.63	19.10	12.86	13.33	11.98	11.74	10.23	10.09	8.341	7.558	8.016	8.168	8.082	6.379
305.0	720.5	884.6	627.2	760.5	698.7	757.0	646.7	413.3	346.5	285.6	277.4	287.2	322.5	420.6	607.1	999.0	926.7	552.3	338.8	857.4	9999.9	9999.9	9999.9	 4406	177.2	131.2	102.9	85.87	60.00	50.09	40.95	36.49	30.06	32.18	28.53	24.16	19.97	22.11	18.70	16.97	16.14	16.64	12.06	12.48	10.81	8.837	10.49	8.186	7.920	7.650	8.900
310.0	973.3	832.9	769.5	828.5	846.2	809.7	700.8	488.3	412.1	318.6	277.4	378.4	410.2	497.5	634.2	888.6	 1192	798.9	365.5	273.2	889.0	9999.9	9999.9	9999.9	 4577	189.1	152.1	124.9	97.21	64.62	52.78	42.72	40.37	32.78	27.19	29.07	25.40	21.54	19.75	18.67	19.80	13.10	15.28	16.80	11.68	12.24	9.575	11.19	9.711	8.743	8.495
315.0	 1050	952.9	716.2	838.0	866.0	898.1	669.5	538.9	431.2	357.4	369.5	412.5	472.8	554.3	733.5	882.2	994.6	 1099	565.9	285.2	252.3	879.3	9999.9	9999.9	9999.9	 4086	238.2	174.6	131.1	101.2	76.66	52.97	45.74	41.71	38.08	33.94	27.69	24.70	22.04	19.30	18.85	16.03	13.58	14.57	12.80	12.29	9.461	10.80	9.162	8.638	8.119
320.0	 1120	849.6	904.3	907.4	811.2	818.0	720.9	602.6	495.0	390.9	441.4	454.0	477.0	571.3	740.3	931.6	931.3	913.3	867.0	416.6	249.7	261.5	910.1	9999.9	9999.9	9999.9	 4162	257.6	192.5	130.7	108.5	78.46	63.86	45.56	41.02	37.00	35.87	28.79	22.13	21.82	19.56	16.80	16.07	17.35	12.53	13.71	12.56	12.18	10.86	9.816	8.914
325.0	 1177	 1160	 1054	943.5	989.5	952.7	828.6	623.8	599.1	458.0	459.6	506.9	517.5	600.0	744.2	938.7	972.4	850.0	782.4	699.9	308.0	236.7	246.9	903.3	9999.9	9999.9	9999.9	 4726	291.3	198.3	152.1	120.1	80.80	62.52	51.17	44.26	33.13	28.67	25.81	23.01	18.97	20.35	17.73	18.40	14.98	15.43	13.22	13.42	10.91	12.02	10.61
330.0	 1131	921.0	827.3	955.0	 1022	952.1	882.5	663.1	592.0	595.1	510.1	488.8	528.0	585.7	764.8	899.9	931.0	846.8	664.9	677.2	531.1	259.0	213.4	269.8	921.4	9999.9	9999.9	9999.9	 4675	302.9	227.5	147.2	119.3	86.66	64.27	46.46	48.21	36.15	31.04	26.38	22.90	18.90	17.49	17.17	16.19	15.75	14.42	14.71	12.41	12.31	11.39
335.0	848.5	996.6	898.5	898.3	 1048	961.9	818.4	742.7	583.6	554.5	478.8	533.9	512.6	646.7	727.4	861.7	878.2	802.6	680.9	527.8	604.9	439.4	218.3	208.4	245.3	928.6	9999.9	9999.9	9999.9	 5086	325.9	228.6	170.0	121.1	90.97	65.42	47.92	42.80	31.79	30.99	23.91	22.05	22.41	18.32	16.77	16.51	16.04	13.47	14.10	12.94	12.23
340.0	 1115	 1258	798.7	747.1	979.5	850.3	800.6	766.5	602.2	563.6	531.2	522.9	554.2	623.7	726.8	854.8	922.4	863.7	710.5	506.0	458.0	576.3	398.8	227.7	223.8	266.3	940.2	9999.9	9999.9	9999.9	 5697	337.0	245.9	182.7	132.2	92.93	65.34	50.68	43.61	31.06	28.03	22.38	21.35	19.46	16.10	15.16	13.60	14.68	14.77	14.49	11.99
345.0	 1003	 1010	998.1	996.7	 1001	889.1	890.2	741.2	621.9	570.7	513.0	509.2	535.4	629.3	727.8	774.2	902.6	842.0	667.7	562.0	433.6	461.6	562.1	325.7	245.5	235.6	268.6	936.7	9999.9	9999.9	9999.9	 6361	350.1	243.7	181.7	131.4	96.69	64.56	48.03	39.24	32.15	25.21	23.92	19.50	17.58	17.44	14.72	14.93	13.24	14.86	12.78
350.0	 1076	815.7	836.9	727.9	848.1	820.5	778.7	702.6	609.7	599.4	581.5	532.7	553.1	601.1	673.7	782.9	848.6	827.0	717.6	592.0	461.5	405.1	476.9	582.0	340.7	277.2	255.2	309.1	965.2	9999.9	9999.9	9999.9	 6589	369.1	255.7	185.3	128.0	93.85	59.87	47.49	37.03	35.79	25.15	22.41	17.41	16.66	16.01	15.13	13.55	13.09	13.15
355.0	 1170	886.0	767.3	850.0	835.0	849.8	850.6	719.9	614.9	577.7	583.6	577.5	625.8	622.1	679.4	841.8	843.9	833.9	725.7	625.9	504.3	442.5	417.1	573.4	568.0	356.1	300.9	298.8	315.1	957.4	9999.9	9999.9	9999.9	 6975	377.8	267.3	179.0	131.4	86.43	58.94	46.72	32.62	28.94	22.96	21.61	18.92	18.91	13.86	12.72	13.71	15.04
360.0	857.7	960.7	899.5	935.4	861.9	967.3	792.3	727.3	671.2	611.7	614.8	623.2	563.7	636.9	743.1	792.0	857.1	823.1	786.1	646.4	575.7	530.4	472.0	490.6	640.6	547.7	383.4	343.1	305.0	335.7	963.3	9999.9	9999.9	9999.9	 6758	356.6	255.5	178.3	118.1	83.69	55.31	45.45	32.93	25.89	25.38	20.08	19.26	15.83	17.25	15.27	14.66
365.0	 1061	880.9	950.7	908.4	889.5	924.3	758.8	764.4	646.8	698.9	638.5	606.0	621.1	627.4	711.6	790.4	825.9	880.3	811.4	682.8	610.4	580.4	547.9	538.0	563.1	700.7	565.8	417.9	345.6	313.6	328.1	948.7	9999.9	9999.9	9999.9	 7610	364.9	250.7	167.2	113.1	77.31	55.98	42.09	32.17	25.83	20.44	20.77	16.60	17.40	17.17	14.34
370.0	 1051	854.0	 1019	865.7	800.9	788.2	764.0	786.9	708.4	689.0	650.1	641.1	672.8	688.8	764.7	862.8	843.5	857.0	813.5	717.9	669.8	643.2	647.2	608.1	584.1	641.3	758.1	559.9	419.5	368.8	313.5	319.5	953.7	9999.9	9999.9	9999.9	 7524	346.3	234.8	159.6	105.6	73.94	52.93	41.70	33.18	27.34	21.40	19.36	18.76	16.20	15.17
375.0	 1034	784.2	977.2	821.1	882.6	862.6	850.5	713.5	807.5	692.1	743.4	681.1	660.0	677.2	798.1	804.7	870.0	867.2	845.2	774.5	740.3	724.3	699.2	680.1	688.5	663.1	726.9	770.4	537.1	436.0	365.4	319.5	323.3	950.2	9999.9	9999.9	9999.9	 8111	328.8	232.5	150.0	103.1	75.35	53.52	42.41	31.25	20.81	19.99	17.98	14.89	15.61
380.0	966.3	944.9	953.7	986.1	792.5	779.8	780.8	816.5	721.5	740.3	798.9	728.6	649.4	712.6	750.0	897.4	905.6	925.2	861.8	776.2	760.7	754.5	771.5	785.4	768.4	759.0	714.1	789.2	720.3	547.5	434.4	354.6	323.8	327.0	951.6	9999.9	9999.9	9999.9	 7346	318.0	209.4	139.8	102.6	72.77	48.45	35.65	29.61	23.99	19.46	18.13	13.95
385.0	825.5	908.4	955.4	959.9	996.2	851.3	732.3	829.2	766.2	824.4	768.7	758.1	797.2	768.8	837.6	914.2	869.9	887.0	896.7	857.9	805.8	821.4	856.1	845.1	822.2	843.1	792.5	750.1	844.5	700.5	512.6	411.1	361.0	323.4	323.5	951.9	9999.9	9999.9	9999.9	 7547	294.3	208.7	138.5	95.91	65.16	44.71	38.45	26.63	21.46	21.12	16.99
390.0	994.7	 1016	979.2	 1097	768.6	853.7	841.4	792.3	844.9	817.6	803.4	810.7	788.7	805.6	878.1	945.8	945.1	928.7	944.1	908.4	904.4	852.5	907.9	930.6	908.6	896.8	889.2	811.8	808.5	823.8	671.4	511.9	431.9	375.5	324.4	325.8	928.8	9999.9	9999.9	9999.9	 7061	274.7	194.4	125.2	88.06	65.11	47.43	33.87	28.34	19.14	20.68
395.0	949.7	859.1	876.9	959.7	840.8	889.7	872.0	871.0	871.5	877.5	881.9	823.5	821.8	854.6	907.3	995.5	963.4	963.0	982.1	946.9	937.5	953.0	956.9	961.6	975.5	968.9	941.1	915.0	832.9	844.3	844.5	656.1	512.9	450.8	381.3	312.6	310.1	907.2	9999.9	9999.9	9999.9	 7164	267.3	179.3	119.7	79.72	61.16	44.00	34.03	27.89	17.79
400.0	934.8	977.9	804.9	888.6	979.4	 1072	864.2	838.5	912.8	932.9	892.9	854.3	847.6	929.5	937.8	 1028	 1030	 1032	 1003	983.8	973.6	995.6	 1024	 1059	 1040	 1008	989.5	970.8	933.7	838.2	863.0	839.2	631.5	536.9	441.9	354.8	293.2	305.4	896.1	9999.9	9999.9	9999.9	 6344	241.3	163.4	111.0	82.70	51.56	38.80	32.62	23.57
405.0	908.0	909.4	731.3	970.6	801.1	913.2	941.0	955.5	942.0	946.0	918.6	907.6	962.7	 1029	 1030	997.8	 1069	 1075	 1076	 1011	 1001	 1009	 1046	 1094	 1102	 1097	 1057	 1017	968.6	927.5	869.4	883.9	804.3	622.3	515.4	428.7	334.9	287.5	273.1	874.0	9999.9	9999.9	9999.9	 5873	234.4	146.7	97.45	71.43	57.88	39.13	28.25
410.0	731.4	686.8	831.7	787.1	912.4	918.5	964.2	950.0	920.7	919.7	 1018	987.0	994.2	985.3	 1036	 1100	 1127	 1089	 1068	 1024	 1021	 1034	 1095	 1095	 1117	 1143	 1111	 1072	 1034	978.8	913.9	859.2	905.6	777.7	597.9	487.6	396.5	317.2	265.5	270.7	857.0	9999.9	9999.9	9999.9	 5407	215.8	137.9	87.65	69.84	49.93	35.62
415.0	827.2	742.1	 1016	906.6	859.8	899.7	962.2	917.2	940.5	 1033	948.4	980.6	 1083	 1011	 1082	 1162	 1153	 1075	 1105	995.1	 1026	 1063	 1065	 1113	 1150	 1129	 1126	 1104	 1085	 1018	980.8	927.6	894.5	926.1	718.5	564.5	464.2	364.9	287.1	243.1	246.6	842.7	9999.9	9999.9	9999.9	 5565	200.5	130.4	81.63	69.80	45.82
420.0	844.5	730.9	776.1	830.2	977.9	945.2	887.6	 1007	 1027	 1036	972.5	940.3	 1033	 1117	 1145	 1171	 1198	 1170	 1118	 1044	 1050	 1079	 1073	 1138	 1144	 1164	 1133	 1142	 1107	 1084	 1026	969.4	910.1	923.7	855.2	664.4	522.8	416.3	328.2	259.1	218.9	232.3	823.0	9999.9	9999.9	9999.9	 4857	189.5	120.7	89.59	60.07
425.0	751.6	736.0	758.0	682.3	943.8	969.4	848.1	976.2	 1029	 1036	 1079	995.4	 1050	 1057	 1107	 1215	 1170	 1164	 1080	 1034	 1046	 1037	 1072	 1122	 1167	 1152	 1174	 1142	 1116	 1082	 1061	996.4	939.9	916.8	885.0	793.2	589.6	459.6	368.8	292.4	241.4	191.8	221.1	814.7	9999.9	9999.9	9999.9	 4168	173.4	115.5	72.89
430.0	833.1	663.0	809.5	954.2	803.6	876.3	907.4	929.4	979.0	990.5	 1012	961.9	 1044	 1165	 1154	 1272	 1226	 1164	 1098	 1071	 1013	 1051	 1082	 1092	 1133	 1162	 1150	 1145	 1138	 1078	 1067	 1026	993.5	899.0	854.6	841.4	671.2	528.4	401.9	333.7	269.5	217.3	180.3	203.3	802.3	9999.9	9999.9	9999.9	 3784	174.5	109.4
435.0	605.1	793.4	721.3	822.4	772.5	894.7	935.7	965.9	 1071	975.4	 1050	 1073	 1052	 1124	 1173	 1228	 1238	 1163	 1085	 1019	997.5	 1024	 1060	 1092	 1111	 1111	 1147	 1151	 1117	 1081	 1090	 1041	979.5	956.2	878.6	806.5	766.9	588.1	440.8	373.7	297.6	242.9	202.9	171.3	197.1	799.5	9999.9	9999.9	9999.9	 3777	155.6
440.0	453.7	739.9	824.8	740.6	796.1	817.3	864.1	936.8	961.0	969.4	 1017	 1006	 1077	 1090	 1213	 1180	 1212	 1147	 1072	 1011	989.8	993.8	 1006	 1022	 1084	 1118	 1112	 1127	 1121	 1083	 1054	 1040	999.3	973.2	902.6	803.6	744.1	678.5	516.9	404.2	325.2	268.7	218.3	185.5	156.9	190.3	787.3	9999.9	9999.9	9999.9	 3381
445.0	628.2	659.6	755.8	607.1	665.2	796.9	921.3	883.9	927.9	963.7	955.6	998.7	 1066	 1060	 1153	 1217	 1199	 1157	 1048	 1008	948.7	964.5	983.6	 1021	 1027	 1079	 1053	 1072	 1082	 1073	 1042	 1011	 1011	964.7	913.9	830.1	717.2	676.9	576.7	433.2	350.5	295.7	247.6	206.0	164.4	156.4	183.9	790.6	9999.9	9999.9	9999.9
450.0	744.3	854.4	728.3	758.2	761.1	836.6	817.6	804.0	873.4	922.1	948.5	 1005	976.9	 1028	 1154	 1183	 1175	 1114	981.0	914.8	938.2	947.6	921.6	964.1	976.6	 1011	 1041	 1043	 1042	 1044	 1011	997.5	970.2	960.8	897.0	821.1	725.2	636.7	603.6	504.5	385.0	313.0	264.8	232.4	184.3	167.8	145.0	184.0	788.5	9999.9	9999.9
455.0	600.9	887.3	648.5	561.5	711.4	729.6	739.5	750.6	795.4	955.9	898.6	936.6	994.5	 1091	 1076	 1147	 1093	 1062	993.8	882.3	858.2	881.2	912.7	919.0	930.8	959.0	961.0	 1013	997.9	 1001	958.3	951.3	927.8	941.3	885.9	792.3	707.0	607.8	560.0	538.5	435.1	337.2	284.6	247.5	218.0	178.9	153.4	138.2	169.7	774.9	9999.9
460.0	493.1	833.8	567.3	665.4	673.2	693.4	673.6	769.3	794.5	860.4	924.8	896.3	905.5	 1072	 1101	 1075	 1086	999.9	913.3	826.8	831.6	809.1	789.4	833.2	876.8	879.5	893.1	918.6	931.6	926.2	925.2	919.3	899.0	892.9	824.4	761.6	691.7	609.4	534.2	511.4	467.6	367.2	301.9	266.8	220.2	184.8	169.5	143.1	131.1	165.6	761.2
465.0	683.3	809.6	589.0	661.2	691.5	650.0	648.4	771.7	782.0	820.2	838.7	870.9	936.9	966.2	 1042	 1074	963.7	957.7	871.5	817.2	806.9	798.6	798.7	795.4	800.8	809.1	855.2	856.7	858.1	878.1	855.1	870.7	854.7	826.3	788.9	735.8	670.1	600.5	521.6	481.7	447.4	402.5	316.6	277.2	240.1	207.1	176.0	157.4	130.7	117.2	159.1
470.0	565.2	572.2	568.9	540.6	653.1	646.7	635.9	669.3	685.7	778.7	801.2	837.6	837.6	910.3	929.6	 1050	932.4	858.7	846.6	770.7	739.1	721.2	746.4	731.0	740.1	762.9	778.0	788.2	798.9	782.5	792.9	818.9	780.7	771.1	763.7	698.2	648.2	592.0	508.7	456.5	414.8	406.7	361.9	285.7	244.3	210.3	183.1	159.4	143.8	125.0	102.4
475.0	459.8	407.7	542.6	478.3	498.5	601.1	513.2	558.5	707.7	700.5	727.0	722.6	798.1	847.6	898.1	899.1	877.1	814.7	796.9	704.2	691.4	661.6	672.1	692.0	690.7	713.2	713.0	725.1	747.9	732.8	732.8	756.0	740.1	720.6	716.3	647.8	611.4	545.2	495.9	429.3	391.8	372.8	374.8	305.1	247.0	213.6	189.2	168.0	143.6	124.3	108.1
480.0	401.8	409.3	556.6	420.1	429.8	541.2	531.6	513.4	625.0	666.3	645.0	724.7	703.0	784.1	775.4	830.9	851.2	821.1	740.9	657.6	649.6	623.5	612.1	640.1	638.3	649.5	661.1	684.5	675.9	677.4	689.8	658.3	670.8	675.8	667.5	630.3	570.0	528.5	464.8	420.3	376.1	349.1	344.4	312.2	268.0	220.8	193.4	175.5	152.4	124.1	110.3
485.0	443.3	267.6	419.1	487.7	541.0	498.1	520.7	500.2	535.7	682.6	661.1	637.0	703.2	690.2	801.0	798.4	804.4	754.7	706.0	629.2	600.9	591.1	601.4	594.9	604.1	601.0	607.9	645.7	636.3	654.4	632.1	637.3	638.8	642.6	624.1	594.5	546.6	500.1	447.4	420.1	375.1	336.7	308.3	309.2	276.4	234.8	201.3	175.3	147.4	137.7	113.3
490.0	417.8	429.5	409.0	362.9	399.4	433.7	431.7	469.1	502.3	604.5	609.1	586.0	647.2	661.2	721.0	772.5	765.5	707.4	630.1	593.2	571.1	571.5	561.2	558.6	563.9	562.8	573.9	576.6	606.7	601.0	600.4	590.9	608.6	589.4	582.3	555.1	515.2	475.3	439.5	404.8	370.6	336.5	305.9	296.2	283.6	255.4	200.8	178.5	159.4	142.5	123.4
495.0	302.8	400.8	383.6	358.2	388.2	504.1	425.9	451.4	492.8	498.5	574.9	597.4	617.5	653.4	674.4	713.2	717.5	687.7	630.7	596.3	510.6	530.5	524.6	522.2	512.7	521.3	533.6	541.5	544.6	552.1	544.1	553.4	565.0	552.7	538.1	527.0	487.0	447.9	414.6	395.8	357.2	324.3	298.0	271.2	265.8	266.6	216.5	179.5	159.2	149.0	127.8
500.0	390.4	376.2	298.7	353.8	286.0	420.4	421.8	469.6	393.4	450.1	494.4	516.4	542.2	630.8	631.5	657.5	593.6	628.9	591.1	523.8	531.2	496.5	480.0	481.0	493.4	479.4	476.9	486.9	496.3	505.0	495.9	507.7	500.0	518.0	507.3	484.3	455.8	427.3	392.9	355.2	338.6	301.8	291.3	271.9	233.8	239.7	226.8	189.4	164.6	144.6	129.6
505.0	323.6	387.0	369.1	398.3	323.3	339.3	343.1	371.7	396.1	463.3	470.1	487.9	533.7	549.5	609.7	584.7	577.4	592.1	530.3	489.7	480.5	464.8	431.5	444.6	467.2	445.8	433.7	444.4	446.2	469.3	466.1	455.6	473.6	468.4	470.1	453.1	423.4	390.8	369.6	333.6	329.1	292.9	266.8	258.0	234.6	214.2	216.7	200.1	170.8	147.4	130.6
510.0	413.0	271.9	304.8	279.0	346.4	313.0	322.2	353.9	368.0	424.5	425.2	450.5	483.5	509.7	546.2	573.7	547.9	518.3	472.6	446.6	433.0	424.9	412.7	413.7	407.3	398.9	398.8	411.6	404.2	439.1	421.4	418.3	433.2	449.1	432.3	415.3	394.0	364.9	348.3	315.4	296.4	270.7	264.1	239.0	234.2	194.0	199.4	198.6	175.1	152.8	125.6
515.0	271.5	296.8	314.6	285.3	323.3	236.9	320.7	355.3	389.7	406.3	384.9	413.3	456.2	476.1	506.1	513.8	518.0	491.0	430.1	424.7	388.8	381.9	384.4	385.7	374.2	370.5	378.7	402.0	368.1	375.9	382.8	383.2	388.4	399.6	404.5	370.7	354.1	351.2	315.6	299.3	273.7	254.3	247.7	222.0	219.9	188.6	192.5	175.2	170.9	145.9	127.1
520.0	253.5	254.4	270.9	296.2	210.9	257.2	320.8	289.3	295.6	380.3	378.1	359.7	405.3	476.1	477.2	470.6	488.3	442.4	359.2	354.2	356.4	352.3	338.7	337.7	332.2	335.1	340.4	350.4	329.3	346.9	349.9	347.2	362.5	355.1	354.6	346.8	323.8	298.7	288.0	272.2	252.3	225.6	223.6	211.2	205.6	188.0	173.0	162.8	160.7	153.8	128.4
525.0	197.4	208.3	239.7	242.1	201.2	248.6	264.3	248.7	312.7	299.4	318.3	352.0	365.7	402.6	406.8	435.2	420.9	402.1	379.4	337.5	335.0	293.3	309.3	308.2	313.3	302.2	312.7	301.1	294.3	318.1	308.0	321.2	311.9	326.9	332.1	306.0	296.9	276.3	266.7	244.2	233.0	220.1	210.4	192.3	186.2	169.2	154.9	143.3	147.8	143.3	132.0
530.0	185.4	177.8	221.5	185.3	257.2	190.1	216.5	251.9	237.2	292.2	295.6	304.5	351.4	372.7	401.3	403.1	370.5	364.8	341.6	299.2	283.9	283.5	288.8	284.6	280.4	276.2	281.5	273.2	270.4	280.5	277.4	272.9	290.0	288.0	281.8	275.4	269.6	255.4	247.2	225.6	215.9	202.9	191.5	183.4	167.1	162.6	149.2	138.4	121.9	125.8	135.0
535.0	142.0	192.6	190.9	175.5	188.4	193.9	195.7	227.7	227.6	272.3	271.1	301.2	325.2	351.0	376.4	367.1	358.0	331.2	307.8	293.6	263.3	257.7	243.0	240.5	254.3	234.1	236.0	258.4	268.0	250.7	247.2	256.0	258.2	263.9	264.2	258.4	236.4	228.8	218.9	205.3	189.7	180.4	169.7	160.8	154.3	145.6	138.9	135.0	115.6	114.3	114.4
540.0	176.2	147.6	125.7	141.9	153.2	194.1	168.5	172.6	229.6	259.4	231.7	286.8	273.4	296.4	432.5	386.2	312.4	280.4	277.9	265.9	236.2	236.1	230.5	221.0	226.0	224.5	213.2	225.3	240.1	215.2	217.9	220.7	218.4	235.3	228.6	230.1	216.4	201.4	199.3	176.9	177.6	164.2	148.8	148.8	134.7	131.1	122.9	118.7	109.9	107.8	97.90
545.0	117.1	164.9	218.8	131.2	129.3	168.5	158.2	177.4	185.8	207.1	224.8	220.0	222.4	245.8	453.9	631.7	339.2	265.1	267.2	229.0	218.2	203.5	203.7	198.8	207.5	214.7	192.8	198.8	199.0	196.8	200.7	212.6	213.9	199.4	207.9	207.7	195.6	186.1	167.3	168.8	158.5	146.1	138.8	134.5	124.8	123.4	116.8	112.3	99.78	99.90	83.98
550.0	213.5	110.0	105.3	126.5	146.1	235.6	148.4	178.6	187.1	237.4	188.3	213.3	227.2	246.8	297.3	 1146	541.5	256.7	229.1	215.8	195.3	194.5	173.8	179.7	175.8	184.4	176.0	179.5	184.2	170.0	194.4	182.6	186.3	183.1	203.1	189.5	175.6	168.5	164.1	151.8	143.9	139.9	126.5	118.2	116.7	119.1	105.4	98.96	90.13	91.47	80.62
