Sample:	'SLABO1-5-5-320
File name:	1N2.FD3
Run Date:	16:42:38, 08/15/2022
Operator:	Administrator
Comment:	'

Instrument
Model:	F-7000 FL Spectrophotometer
Serial Number:	2354-007
ROM Version:	5J14000 06

Instrument Parameters
Measurement type:	3-D Scan
Data mode:	Fluorescence
EX  Start WL:	200.0 nm
EX  End WL:	450.0 nm
EX Sampling Interval:	5.0 nm
EM  Start WL:	280.0 nm
EM  End WL:	550.0 nm
EM Sampling Interval:	5.0 nm
Scan speed:	12000 nm/min
EX Slit:	5.0 nm
EM Slit:	5.0 nm
PMT Voltage:	700 V
Response:	Auto 
Corrected spectra:	Off
Shutter control:	On
Contour interval:	25.000

Peak integration
Integration method:	Rectangular
Sensitivity:	1
Threshold:	1.000

Peaks
No.	ApexEX/EM(nm)	Height(Data)
1	205.0/315.0	 1520
2	205.0/325.0	 1498
3	205.0/350.0	 1030
4	205.0/365.0	715.4
5	205.0/385.0	583.9
6	210.0/335.0	 1238
7	210.0/390.0	655.2
8	210.0/455.0	357.8
9	210.0/520.0	106.9
10	210.0/535.0	85.47
11	215.0/310.0	 1173
12	215.0/395.0	590.1
13	215.0/430.0	542.9
14	215.0/470.0	347.1
15	215.0/495.0	229.1
16	215.0/545.0	81.77
17	220.0/380.0	615.9
18	220.0/405.0	659.4
19	220.0/460.0	434.2
20	220.0/480.0	271.1
21	220.0/510.0	199.4
22	220.0/525.0	152.3
23	225.0/325.0	 1070
24	225.0/370.0	708.5
25	225.0/385.0	706.4
26	225.0/470.0	357.6
27	225.0/500.0	208.0
28	225.0/515.0	166.4
29	230.0/425.0	664.6
30	230.0/475.0	359.7
31	230.0/510.0	210.4
32	230.0/530.0	156.3
33	240.0/505.0	219.7
34	245.0/375.0	 1015
35	245.0/420.0	793.7
36	245.0/440.0	638.5
37	245.0/525.0	166.8
38	250.0/335.0	 1674
39	250.0/410.0	827.9
40	250.0/460.0	535.4
41	255.0/430.0	718.3
42	265.0/490.0	372.5
43	275.0/305.0	 1335
44	275.0/390.0	612.1
45	275.0/415.0	704.4
46	275.0/535.0	171.3
47	280.0/310.0	 1549
48	280.0/380.0	652.4
49	280.0/395.0	615.1
50	280.0/410.0	699.8
51	280.0/425.0	671.4
52	280.0/440.0	630.9
53	285.0/315.0	 1420
54	285.0/375.0	636.1
55	285.0/400.0	634.5
56	300.0/335.0	593.2
57	305.0/340.0	570.8
58	310.0/345.0	542.9
59	310.0/405.0	507.6
60	310.0/435.0	478.9
61	315.0/350.0	487.8
62	320.0/360.0	479.8
63	320.0/410.0	528.7
64	320.0/425.0	512.1
65	325.0/365.0	529.8
66	325.0/415.0	523.9
67	330.0/370.0	536.3
68	330.0/425.0	521.7
69	335.0/375.0	510.9
70	340.0/385.0	529.4
71	345.0/390.0	526.9
72	350.0/395.0	522.1
73	355.0/405.0	497.2
74	360.0/410.0	502.1
75	365.0/415.0	487.9
76	370.0/420.0	445.5
77	375.0/315.0	8.294
78	375.0/430.0	393.6
79	380.0/435.0	357.2
80	390.0/305.0	5.369
81	395.0/455.0	222.3
82	400.0/315.0	5.670
83	405.0/340.0	7.205
84	405.0/470.0	166.5
85	410.0/335.0	6.697
86	410.0/475.0	152.8
87	415.0/320.0	5.893
88	420.0/325.0	5.938
89	425.0/495.0	95.62
90	430.0/325.0	5.697
91	430.0/500.0	83.12
92	435.0/510.0	73.60
93	440.0/360.0	5.726
94	440.0/515.0	64.59
95	445.0/345.0	5.806
96	445.0/520.0	57.99

Data Points
	200.0	205.0	210.0	215.0	220.0	225.0	230.0	235.0	240.0	245.0	250.0	255.0	260.0	265.0	270.0	275.0	280.0	285.0	290.0	295.0	300.0	305.0	310.0	315.0	320.0	325.0	330.0	335.0	340.0	345.0	350.0	355.0	360.0	365.0	370.0	375.0	380.0	385.0	390.0	395.0	400.0	405.0	410.0	415.0	420.0	425.0	430.0	435.0	440.0	445.0	450.0
280.0	78.38	40.50	-1.164	47.07	20.52	28.26	8.851	4.920	7.839	26.11	48.77	60.69	49.78	16.10	14.67	 1364	 8878	 3682	125.0	18.65	13.84	14.03	8.643	6.249	5.205	4.920	5.121	4.023	4.154	3.756	3.581	5.376	4.105	3.581	3.558	2.361	2.355	2.213	1.654	1.628	1.621	2.120	1.212	1.858	1.445	0.429	0.901	0.376	0.653	0.299	1.014
285.0	139.6	175.0	278.7	125.4	219.3	136.5	55.80	45.39	28.60	85.86	106.5	128.2	198.7	145.4	74.62	152.7	 3350	9999.9	9999.9	757.5	20.10	20.09	14.21	13.66	11.20	10.34	6.648	8.076	4.616	4.379	3.669	3.456	4.234	3.236	3.947	2.772	4.610	1.958	1.316	2.506	1.946	1.967	1.486	1.475	1.278	0.985	2.565	1.217	2.173	0.989	1.416
290.0	440.8	357.1	539.4	459.2	388.0	422.1	246.6	120.2	85.95	148.3	154.0	177.3	240.1	405.7	279.9	224.8	391.1	 7300	9999.9	9999.9	 1027	26.12	20.54	18.67	14.06	12.32	10.31	6.654	5.396	5.687	5.681	4.227	4.467	3.701	4.802	3.031	3.911	3.814	3.272	2.610	2.308	3.317	2.287	2.038	1.323	1.637	1.609	2.228	1.800	1.841	1.601
295.0	830.0	612.1	471.6	618.3	701.2	622.1	431.1	211.1	162.8	170.9	251.6	252.1	271.8	494.8	679.8	535.1	412.0	714.2	9999.9	9999.9	9999.9	 1277	36.80	28.73	20.82	18.71	13.74	9.152	9.025	6.403	7.122	5.441	4.721	5.539	5.785	4.407	3.764	3.726	3.740	3.395	2.794	3.124	2.147	2.784	1.655	2.377	2.612	2.525	2.810	2.631	3.334
300.0	983.7	853.4	639.3	934.6	966.2	984.7	594.4	451.9	333.6	299.4	367.8	368.3	413.9	501.4	875.9	 1082	705.0	464.2	820.4	9999.9	9999.9	9999.9	 1379	38.62	28.31	20.71	18.57	16.30	8.763	8.120	9.104	5.967	7.086	7.814	6.062	6.144	5.689	3.586	4.554	3.833	3.494	3.797	3.506	2.792	2.242	3.107	3.327	4.105	3.292	4.615	3.196
305.0	 1152	 1272	790.9	863.3	 1136	 1045	840.0	560.2	517.6	575.9	629.1	578.9	629.2	666.0	788.8	 1335	 1215	611.9	304.2	755.4	9999.9	9999.9	9999.9	 1501	47.11	34.80	26.40	18.99	12.49	14.22	10.83	9.070	7.788	7.318	6.072	4.490	4.051	4.615	5.369	3.739	3.123	3.478	4.289	3.371	4.427	4.196	3.331	3.622	3.884	3.954	3.500
310.0	 1020	 1148	959.0	 1173	 1140	 1100	935.4	755.2	665.6	871.5	848.0	857.8	758.0	737.0	871.4	 1091	 1549	961.6	356.6	204.3	720.8	9999.9	9999.9	9999.9	 1513	49.76	36.91	30.42	19.97	14.29	12.67	7.481	9.373	8.414	6.168	5.252	5.386	5.516	4.727	3.887	4.809	5.165	3.766	4.858	4.738	4.596	3.882	4.046	3.559	4.321	3.222
315.0	 1028	 1520	 1053	 1082	 1124	 1023	 1059	943.2	895.4	 1100	 1198	 1139	961.4	852.8	950.2	 1137	 1241	 1420	566.2	205.4	151.7	724.2	9999.9	9999.9	9999.9	 1292	53.05	41.48	29.93	20.76	13.48	10.50	8.599	6.569	7.061	8.294	5.540	5.427	4.225	4.966	5.670	4.642	4.633	4.348	5.410	4.213	4.773	3.602	4.250	4.494	4.375
320.0	 1032	980.0	 1247	 1140	918.2	 1039	893.2	 1008	 1120	 1266	 1505	 1312	 1139	969.3	954.4	 1081	 1117	 1085	985.7	363.6	153.5	144.9	721.4	9999.9	9999.9	9999.9	 1291	60.90	46.02	33.91	22.12	16.99	12.71	12.03	7.506	7.081	6.812	6.751	4.084	5.229	4.516	5.474	5.496	5.893	5.371	5.047	4.652	4.973	4.257	5.035	5.663
325.0	 1021	 1498	 1331	 1191	 1022	 1070	985.5	 1171	 1220	 1518	 1623	 1589	 1313	 1033	939.9	 1082	 1072	829.5	826.4	750.8	235.1	119.5	128.5	714.3	9999.9	9999.9	9999.9	 1389	60.26	45.92	31.51	26.64	17.29	14.36	10.13	8.170	7.025	7.138	5.256	5.259	5.118	4.865	4.896	5.723	5.938	4.451	5.697	4.316	4.325	5.127	4.614
330.0	 1124	 1429	 1130	970.0	925.9	972.9	 1075	 1070	 1284	 1575	 1632	 1562	 1320	 1023	911.9	 1001	 1063	871.7	595.6	712.4	554.0	158.3	97.40	123.2	716.0	9999.9	9999.9	9999.9	 1317	66.14	44.41	32.86	23.60	19.99	16.55	10.36	8.070	8.030	6.993	6.096	4.251	5.662	4.290	5.467	4.229	4.952	5.378	5.336	3.632	4.924	4.323
335.0	961.0	889.3	 1238	874.7	934.7	874.2	969.3	 1084	 1313	 1595	 1674	 1632	 1248	992.6	862.3	933.9	957.8	793.2	579.7	440.2	593.2	390.2	130.8	93.79	122.2	708.5	9999.9	9999.9	9999.9	 1371	66.61	44.62	32.12	25.67	20.78	12.43	9.785	7.312	6.063	6.981	4.878	6.177	6.697	5.020	4.312	4.861	4.626	3.087	3.252	5.251	3.392
340.0	659.0	961.5	901.7	762.2	841.3	878.3	932.7	 1089	 1231	 1446	 1613	 1499	 1247	900.2	851.5	928.7	908.3	797.4	591.5	367.2	321.2	570.8	303.0	115.4	95.03	119.6	713.6	9999.9	9999.9	9999.9	 1449	66.18	49.76	37.74	26.32	20.35	12.31	9.278	8.779	6.925	4.460	7.205	4.942	4.656	4.224	4.551	4.113	3.593	4.636	5.479	4.072
345.0	602.8	818.5	993.5	641.5	784.2	776.8	935.4	929.9	 1133	 1409	 1459	 1383	 1216	857.5	822.0	862.8	888.3	715.9	595.1	387.8	261.3	319.0	542.9	227.2	119.5	103.1	130.3	709.4	9999.9	9999.9	9999.9	 1557	75.48	48.74	38.42	27.13	18.76	12.78	8.054	9.511	6.403	5.715	5.585	4.829	4.697	5.107	3.607	4.668	3.806	5.806	5.014
350.0	534.5	 1030	774.2	726.5	650.4	636.9	862.6	912.1	 1038	 1305	 1428	 1359	 1185	831.7	758.3	756.7	800.2	714.3	537.9	388.8	265.8	236.7	360.2	487.8	194.4	120.1	109.0	130.7	710.5	9999.9	9999.9	9999.9	 1545	69.38	48.14	32.78	25.06	19.07	9.722	10.15	8.608	6.101	3.834	4.075	4.814	4.881	4.166	3.214	4.244	5.152	4.278
355.0	521.1	889.0	760.9	752.2	756.5	653.4	796.8	876.2	957.7	 1310	 1261	 1232	981.2	799.9	718.7	733.2	774.3	682.8	564.2	412.9	301.1	231.9	249.7	445.2	440.5	188.7	128.2	114.4	135.8	722.4	9999.9	9999.9	9999.9	 1572	69.97	48.78	32.76	26.37	15.06	10.47	7.914	7.046	5.932	5.630	6.171	5.616	5.634	4.406	5.020	4.442	4.496
360.0	653.3	645.3	536.5	571.7	584.1	654.0	678.0	866.1	945.1	 1098	 1173	 1192	986.1	747.1	678.9	687.5	736.6	660.2	559.6	378.9	313.8	262.5	249.0	262.4	479.8	400.8	183.0	142.1	124.6	137.9	715.2	9999.9	9999.9	9999.9	 1474	69.04	44.17	31.44	22.26	17.31	11.07	8.416	7.113	6.614	6.990	5.805	4.226	4.507	5.726	4.103	4.179
365.0	550.9	715.4	693.1	555.4	610.3	650.2	715.1	712.2	928.9	 1051	 1154	 1017	893.1	784.5	648.9	657.3	647.0	595.3	545.3	456.4	350.0	291.2	262.2	270.7	334.8	529.8	337.6	173.5	139.9	121.8	137.5	712.6	9999.9	9999.9	9999.9	 1572	63.79	44.75	28.50	20.82	14.24	9.554	8.881	7.905	5.030	3.299	4.605	3.600	3.743	5.643	3.860
370.0	462.4	605.7	621.1	533.4	566.2	708.5	655.8	688.5	817.2	947.2	 1059	980.4	853.3	742.4	613.8	601.7	629.8	587.8	508.3	457.1	373.4	333.2	334.6	289.0	289.4	378.9	536.3	310.3	184.3	150.5	115.8	137.8	708.5	9999.9	9999.9	9999.9	 1521	61.31	41.70	27.66	20.87	17.27	10.25	9.967	7.538	5.703	6.094	3.836	3.578	4.363	4.344
375.0	321.9	458.0	586.1	525.5	467.5	654.8	627.5	673.7	731.4	 1015	980.3	903.3	831.2	682.0	651.1	626.1	617.7	636.1	519.1	464.4	356.3	335.0	345.0	343.6	312.4	331.3	429.8	510.9	287.1	180.1	142.2	124.7	136.0	707.0	9999.9	9999.9	9999.9	 1587	57.37	38.27	26.35	22.73	12.60	9.361	9.303	6.355	5.999	4.581	3.492	4.276	4.357
380.0	350.0	459.4	598.5	597.3	615.9	578.8	650.2	726.7	808.9	873.6	921.4	901.2	815.5	683.0	590.4	594.8	652.4	580.1	548.8	492.9	418.5	393.1	376.6	372.4	375.1	353.6	353.1	473.9	475.2	254.2	177.1	144.8	117.9	136.7	705.3	9999.9	9999.9	9999.9	 1400	53.31	34.73	29.40	16.93	13.00	10.19	7.127	5.985	4.861	3.596	5.220	3.425
385.0	262.9	583.9	558.5	525.9	478.8	706.4	626.1	677.6	771.0	922.9	948.0	876.6	739.2	616.5	622.2	591.3	593.9	591.9	542.7	495.2	453.4	437.8	401.9	397.4	386.2	375.1	361.1	367.5	529.4	414.0	239.8	168.1	145.5	119.2	131.7	701.1	 8641	9999.9	9999.9	 1387	51.01	32.63	21.78	17.56	12.93	8.379	6.343	7.359	4.394	5.575	4.317
390.0	312.2	357.7	655.2	494.4	498.8	573.1	688.9	724.1	757.8	880.1	881.3	774.6	735.5	640.6	597.1	612.1	585.0	561.3	547.3	519.1	444.2	449.3	435.1	427.0	428.8	419.5	396.6	379.9	412.4	526.9	368.2	222.9	185.1	149.6	112.3	127.2	614.0	 7928	9999.9	9999.9	 1301	48.31	31.90	21.66	15.13	11.02	8.359	5.604	4.721	4.480	4.040
395.0	385.2	423.5	540.7	590.1	508.0	501.3	631.0	652.4	730.1	851.0	832.5	785.0	710.3	611.3	606.2	608.4	615.1	566.1	573.5	523.3	467.5	480.9	481.1	458.8	446.2	442.9	445.1	438.3	408.9	463.9	522.1	319.5	204.7	176.5	138.3	112.3	117.3	560.3	 7345	9999.9	9999.9	 1285	45.81	30.07	22.76	15.08	12.58	8.257	7.452	5.139	4.428
400.0	285.8	388.5	508.8	497.7	580.3	613.6	690.0	761.0	772.9	848.2	815.7	812.7	715.6	643.1	618.7	607.0	602.9	634.5	542.5	542.5	493.9	495.9	484.2	479.8	477.1	492.2	448.3	455.7	433.9	405.5	466.9	486.6	297.8	213.6	175.1	140.2	105.9	109.0	519.1	 7002	9999.9	9999.9	 1123	43.76	28.81	20.08	13.40	7.593	7.704	6.958	5.229
405.0	326.8	470.3	419.9	499.7	659.4	470.7	670.3	655.2	689.8	817.4	804.3	769.2	664.5	657.4	622.1	611.7	625.6	619.0	535.5	541.9	515.3	488.8	507.6	496.7	514.7	508.6	480.6	475.2	469.0	415.5	399.0	497.2	430.1	284.9	210.6	162.5	118.5	97.82	99.85	497.0	 6136	9999.9	9999.9	 1026	36.54	27.03	17.04	14.66	8.953	8.207	5.485
410.0	357.5	414.6	536.7	431.6	581.7	575.5	596.8	631.8	714.3	741.4	827.9	758.3	713.5	636.5	602.5	616.9	699.8	549.2	555.9	525.5	513.1	497.3	479.0	507.9	528.7	516.8	505.9	513.0	469.1	455.8	407.8	427.5	502.1	383.9	260.4	203.7	144.5	109.0	89.71	93.14	436.6	 6053	9999.9	9999.9	923.7	40.89	25.14	17.86	13.90	9.721	7.212
415.0	296.1	426.4	454.0	520.0	562.7	654.5	639.4	676.6	721.9	779.3	780.6	765.3	684.8	682.4	630.0	704.4	694.7	564.3	580.7	495.8	484.8	493.4	496.2	516.6	514.0	523.9	520.2	508.8	505.7	463.5	427.8	409.9	437.5	487.9	329.2	221.3	173.1	131.7	97.37	75.25	81.11	425.5	 5802	9999.9	9999.9	972.2	37.89	24.11	16.24	13.57	8.736
420.0	340.8	337.8	395.0	456.3	546.6	560.4	618.9	623.4	661.2	793.7	748.6	754.0	729.4	632.1	624.6	651.1	634.9	574.6	555.9	494.9	478.6	490.7	479.5	505.6	507.2	502.1	511.9	511.3	502.6	484.9	433.3	407.6	388.0	430.3	445.5	291.9	199.3	142.6	110.4	85.38	65.93	77.85	407.0	 5510	9999.9	9999.9	847.3	30.70	20.82	15.20	10.59
425.0	268.6	536.5	573.9	478.6	519.4	593.9	664.6	636.6	616.5	712.9	768.5	693.4	679.8	622.1	617.3	601.5	671.4	541.2	516.8	492.6	474.2	475.1	474.7	511.7	512.1	509.0	521.7	519.4	495.0	471.8	451.0	432.1	398.8	363.0	405.7	377.7	235.6	162.6	134.9	96.74	75.48	60.82	70.67	384.3	 5136	9999.9	9999.9	690.6	30.12	19.88	15.37
430.0	258.0	317.1	492.5	542.9	508.9	612.1	642.6	580.3	635.0	628.7	657.1	718.3	682.3	636.2	613.3	607.2	631.3	581.8	528.8	498.3	480.9	453.7	459.6	480.5	503.1	491.9	496.1	506.4	481.6	460.7	441.9	446.2	403.2	364.2	364.8	393.6	306.5	188.0	140.5	108.7	87.63	71.41	51.12	62.37	357.7	 4965	9999.9	9999.9	604.2	27.08	20.65
435.0	334.4	294.1	373.8	445.8	485.3	547.8	621.3	554.1	586.8	598.8	653.3	681.9	676.7	613.8	587.5	589.1	604.8	546.5	495.9	479.3	437.5	435.4	478.9	470.9	462.9	487.9	470.1	494.1	463.5	457.8	440.6	406.1	384.0	376.9	335.0	339.2	357.2	242.3	151.7	121.5	96.99	75.55	61.22	50.87	61.26	348.8	 5004	9999.9	9999.9	612.3	24.44
440.0	208.6	345.7	430.2	457.0	520.0	509.1	428.4	520.5	617.4	638.5	622.4	687.6	635.8	593.9	571.7	627.8	630.9	552.8	494.0	464.9	428.3	429.4	424.8	455.3	458.8	454.8	455.3	473.7	452.3	439.1	427.3	403.9	390.6	369.8	321.5	310.0	310.0	295.0	189.5	129.8	107.3	83.92	66.34	58.69	44.28	60.91	347.8	 4755	9999.9	9999.9	521.9
445.0	157.2	347.1	360.3	365.7	442.0	454.5	503.7	538.0	531.3	592.6	617.0	646.9	607.2	593.2	555.6	620.6	613.4	528.8	500.5	424.7	420.8	423.3	398.3	436.0	415.9	431.8	434.1	456.2	430.8	418.3	412.8	390.7	392.2	373.2	343.3	301.7	259.9	286.8	262.1	164.5	114.3	100.8	76.05	63.65	50.92	44.51	56.95	328.4	 4741	9999.9	9999.9
450.0	231.8	182.5	263.8	347.3	334.8	473.6	445.0	480.0	528.6	569.0	585.4	598.6	570.1	567.6	548.4	558.2	553.8	511.9	434.6	407.5	390.2	377.6	389.2	393.3	391.0	414.0	404.5	444.2	402.3	415.2	373.8	364.7	382.2	360.2	326.7	279.5	252.0	229.4	255.2	208.4	123.5	101.6	81.99	68.15	58.26	50.18	41.23	51.49	325.3	 4485	9999.9
455.0	217.6	219.4	357.8	343.9	331.0	406.5	434.7	453.1	493.2	489.9	492.2	537.0	514.3	562.4	535.7	518.2	554.9	459.1	400.7	360.5	376.6	347.4	352.3	371.8	361.6	365.7	382.2	424.3	378.5	378.2	358.2	360.8	342.9	332.1	306.0	287.8	253.7	216.0	209.0	222.3	161.9	113.9	82.52	68.26	62.03	56.59	40.78	39.49	51.32	309.6	 4471
460.0	228.3	162.4	249.1	311.1	434.2	383.9	353.1	432.2	420.9	493.6	535.4	520.1	526.8	531.8	487.1	488.9	538.5	456.8	365.2	349.6	342.6	323.1	321.6	336.6	343.0	335.3	340.2	370.4	358.3	364.5	334.9	344.9	314.2	322.9	288.6	268.1	230.8	214.3	180.9	190.0	187.3	128.4	95.62	78.22	68.76	55.66	48.03	38.10	32.07	48.99	306.9
465.0	172.8	179.2	250.4	328.4	409.9	271.1	392.6	388.1	461.6	469.4	473.6	514.9	485.4	499.6	475.9	465.2	451.3	432.6	359.9	319.6	320.6	319.1	301.3	303.4	311.0	324.5	341.8	335.0	327.2	321.8	315.3	314.4	296.7	291.4	288.4	265.2	226.9	198.2	175.0	149.8	171.3	161.3	102.2	85.63	71.37	58.71	52.80	42.73	35.41	32.29	47.75
470.0	121.3	181.0	289.3	347.1	332.7	357.6	321.2	431.6	409.0	399.4	434.1	411.7	451.9	457.9	436.8	450.0	454.1	402.9	328.7	308.6	300.6	265.9	276.5	263.1	293.0	298.8	283.8	305.5	289.0	290.5	298.0	288.3	277.4	266.8	263.6	246.0	215.7	186.2	167.8	152.6	142.2	166.5	132.8	90.06	70.02	61.67	54.06	43.35	38.46	33.71	27.88
475.0	140.6	169.4	202.6	275.3	259.2	311.9	359.7	339.8	351.1	357.2	397.4	387.4	396.7	408.6	407.4	398.7	372.0	360.4	305.3	305.9	274.0	265.1	267.7	244.9	260.5	249.0	262.0	276.4	269.5	260.9	262.3	251.8	246.3	238.4	244.5	230.7	203.6	184.6	163.8	145.4	120.5	127.1	152.8	105.8	76.46	62.59	56.66	45.90	39.79	33.64	26.36
480.0	81.17	93.02	172.8	240.9	271.1	247.9	298.9	311.0	347.9	326.5	333.1	370.8	379.9	377.1	388.6	395.5	378.1	318.2	288.2	265.1	250.6	226.3	234.6	249.9	222.3	233.6	228.6	251.6	244.1	244.8	235.7	232.0	231.2	234.5	222.9	214.7	192.3	176.9	157.5	137.5	122.4	106.6	117.7	116.5	85.38	67.92	55.24	49.47	41.50	35.75	30.43
485.0	131.4	114.1	226.2	242.1	260.9	221.4	314.1	272.1	285.1	303.8	330.8	340.6	339.5	345.4	372.7	362.4	356.5	302.8	276.0	264.5	238.1	219.3	227.5	211.9	198.4	215.2	226.2	235.1	207.7	225.5	224.0	226.6	209.2	217.4	203.7	187.2	179.6	169.2	144.8	133.1	115.4	102.8	98.49	112.5	109.0	74.41	56.48	49.84	46.03	36.65	28.85
490.0	110.7	158.5	179.2	222.5	211.5	183.9	223.2	249.6	282.9	297.1	301.6	348.5	348.4	372.5	346.9	360.0	319.5	298.2	244.2	248.5	228.9	208.5	197.6	197.5	205.7	188.1	208.5	216.4	207.8	204.6	200.5	198.7	206.5	204.5	189.2	186.8	163.9	160.5	135.0	123.6	112.6	97.52	93.84	96.48	106.2	84.89	63.73	54.67	45.43	39.18	32.79
495.0	135.5	144.4	96.96	229.1	183.7	194.9	215.0	224.6	216.8	278.4	279.0	286.8	305.2	306.0	284.8	313.7	318.3	268.1	239.7	215.4	196.3	188.9	185.1	183.5	179.4	182.3	183.6	190.0	186.1	174.3	183.3	191.6	176.8	181.9	170.0	162.8	156.2	142.7	124.9	116.9	101.6	98.81	88.69	81.39	90.35	95.62	83.10	52.78	42.21	43.33	32.29
500.0	122.0	22.53	178.9	220.6	194.1	208.0	170.8	232.9	219.3	223.9	302.0	257.7	295.5	272.0	286.8	294.6	268.4	256.1	237.6	201.5	176.7	185.8	176.3	167.4	157.6	154.7	167.4	180.9	169.0	167.6	175.6	168.3	162.5	174.8	163.9	150.9	138.0	129.9	121.9	105.5	103.5	92.92	82.61	76.00	68.34	83.01	83.12	61.59	45.90	38.20	35.67
505.0	52.78	100.0	154.2	163.5	160.1	140.1	161.2	189.5	219.7	199.9	249.6	244.0	272.5	260.1	269.4	279.4	250.3	238.4	212.3	190.1	168.3	158.4	167.4	154.0	151.3	142.4	143.5	152.2	158.8	159.4	158.7	146.4	156.8	154.9	142.8	138.5	131.0	124.8	111.3	98.29	91.53	85.87	77.87	71.56	64.33	64.77	78.04	73.42	49.24	40.94	33.95
510.0	46.56	121.7	121.6	122.1	199.4	140.0	210.4	162.3	188.2	189.0	209.4	212.0	228.3	240.7	237.3	240.8	241.5	211.8	180.4	173.3	156.8	153.2	144.6	144.6	140.6	134.7	137.4	144.2	137.7	139.4	142.3	136.4	139.9	133.0	136.1	132.3	120.1	113.4	102.1	95.40	83.98	80.73	79.98	69.56	62.57	60.64	60.11	73.60	59.04	44.23	32.42
515.0	55.91	127.4	57.39	142.7	130.4	166.4	137.5	137.4	175.3	177.5	179.7	217.0	242.8	231.9	220.8	219.4	214.0	185.0	165.2	167.1	143.7	129.9	138.6	124.8	123.9	127.2	129.2	133.4	134.9	120.7	122.6	122.7	119.6	124.4	125.4	117.6	108.5	99.35	92.94	87.24	80.88	77.12	66.51	62.31	58.04	56.37	51.72	61.68	64.59	48.88	34.44
520.0	46.35	99.67	106.9	99.15	118.8	113.2	111.9	129.7	141.3	151.6	176.1	181.1	174.8	178.5	214.5	207.9	212.2	193.3	156.4	134.9	130.1	123.3	120.6	124.3	114.6	106.8	115.6	119.5	112.6	116.3	115.8	109.9	115.6	112.0	116.1	110.3	94.35	94.23	83.94	78.91	70.58	71.05	64.73	61.59	56.41	49.80	44.89	47.27	50.93	57.99	39.79
525.0	68.69	125.0	13.72	129.8	152.3	80.01	122.6	101.7	136.2	166.8	123.4	162.6	168.0	169.5	185.1	172.4	167.4	154.1	133.4	124.5	108.7	116.3	98.94	105.5	110.9	101.6	105.0	114.3	105.4	102.1	105.1	97.93	94.92	93.97	110.7	92.55	89.93	82.88	77.59	69.95	72.06	65.30	54.40	59.84	50.21	46.53	48.10	40.07	41.05	48.78	45.33
530.0	85.64	74.15	66.94	84.64	66.27	95.07	156.3	96.19	125.4	128.1	130.6	145.8	151.3	155.9	169.1	158.9	163.1	133.8	141.1	124.1	111.5	105.0	101.3	93.84	100.1	97.05	86.59	92.19	101.8	88.74	90.57	89.82	89.73	90.66	87.07	88.70	76.13	79.70	71.45	63.79	59.64	54.80	54.81	47.79	43.47	46.45	41.82	36.36	32.33	40.36	48.82
535.0	40.49	79.22	85.47	63.60	62.77	96.02	93.53	105.7	104.1	120.0	122.2	130.5	153.8	142.9	160.0	171.3	139.9	113.9	134.3	115.6	88.28	95.72	91.66	84.29	87.36	88.42	85.73	81.33	79.33	76.52	80.29	83.92	88.84	77.94	79.39	79.46	78.72	68.62	64.42	57.33	59.03	51.59	52.27	43.68	41.66	43.63	38.71	36.09	28.24	31.86	38.00
540.0	21.36	64.92	74.49	63.75	59.05	85.54	95.09	73.14	91.04	110.8	84.01	96.50	127.2	134.5	168.4	145.3	116.9	119.7	107.9	91.62	83.15	73.37	84.51	77.84	76.24	70.54	69.21	75.06	66.63	72.50	73.28	70.98	71.06	68.69	72.88	69.74	64.56	64.61	57.64	54.07	51.70	47.14	45.12	43.43	40.63	35.51	37.24	32.31	28.95	28.54	29.20
545.0	146.2	23.92	43.89	81.77	50.30	52.24	64.83	78.50	79.27	91.78	96.58	102.0	103.6	110.8	171.7	267.6	133.4	103.5	108.4	84.76	79.47	79.96	69.60	71.24	65.47	70.88	69.56	62.09	66.04	65.82	70.84	61.45	66.77	62.53	60.07	63.23	57.72	50.36	53.83	48.99	45.38	41.05	38.47	39.84	36.13	29.59	30.77	29.22	25.81	25.55	25.45
550.0	73.68	16.34	76.06	60.49	71.88	36.07	61.24	51.59	88.51	84.44	96.74	92.32	99.22	101.8	138.5	437.2	198.8	88.65	86.20	81.99	71.17	63.02	58.52	65.23	64.21	62.25	58.96	67.89	56.82	55.42	59.38	59.33	57.10	59.67	56.01	59.41	53.56	42.42	46.59	41.05	41.17	39.11	36.07	30.72	34.60	29.21	25.01	24.08	24.87	25.81	21.26
