Sample:	'SLABO1-5-5-320
File name:	1N4.FD3
Run Date:	16:34:07, 08/15/2022
Operator:	Administrator
Comment:	'

Instrument
Model:	F-7000 FL Spectrophotometer
Serial Number:	2354-007
ROM Version:	5J14000 06

Instrument Parameters
Measurement type:	3-D Scan
Data mode:	Fluorescence
EX  Start WL:	200.0 nm
EX  End WL:	450.0 nm
EX Sampling Interval:	5.0 nm
EM  Start WL:	280.0 nm
EM  End WL:	550.0 nm
EM Sampling Interval:	5.0 nm
Scan speed:	12000 nm/min
EX Slit:	5.0 nm
EM Slit:	5.0 nm
PMT Voltage:	700 V
Response:	Auto 
Corrected spectra:	Off
Shutter control:	On
Contour interval:	25.000

Peak integration
Integration method:	Rectangular
Sensitivity:	1
Threshold:	1.000

Peaks
No.	ApexEX/EM(nm)	Height(Data)
1	205.0/315.0	921.4
2	205.0/525.0	131.9
3	210.0/310.0	949.9
4	210.0/325.0	893.4
5	210.0/360.0	632.7
6	210.0/370.0	605.3
7	210.0/380.0	601.5
8	210.0/510.0	249.8
9	210.0/545.0	137.0
10	215.0/340.0	870.1
11	215.0/410.0	692.7
12	215.0/455.0	627.0
13	215.0/485.0	417.9
14	215.0/535.0	162.4
15	220.0/315.0	 1251
16	220.0/385.0	686.9
17	220.0/395.0	692.7
18	220.0/505.0	337.9
19	220.0/525.0	170.1
20	225.0/320.0	 1178
21	225.0/355.0	897.8
22	230.0/340.0	 1048
23	230.0/365.0	785.9
24	230.0/380.0	744.1
25	230.0/530.0	189.1
26	235.0/370.0	740.5
27	235.0/545.0	160.2
28	240.0/355.0	775.3
29	240.0/365.0	729.9
30	240.0/380.0	751.7
31	240.0/400.0	886.6
32	245.0/385.0	764.2
33	250.0/330.0	788.3
34	250.0/380.0	750.2
35	250.0/395.0	848.5
36	255.0/335.0	813.3
37	255.0/370.0	680.7
38	275.0/305.0	 1686
39	275.0/370.0	892.3
40	275.0/445.0	 2044
41	280.0/310.0	 1862
42	285.0/315.0	 1634
43	285.0/385.0	879.8
44	305.0/340.0	604.0
45	310.0/345.0	583.5
46	315.0/350.0	526.6
47	320.0/360.0	604.6
48	325.0/365.0	633.6
49	330.0/370.0	663.7
50	335.0/380.0	661.1
51	340.0/385.0	680.2
52	345.0/390.0	680.5
53	345.0/435.0	 1139
54	350.0/440.0	 1159
55	375.0/300.0	6.444
56	390.0/300.0	5.825
57	390.0/320.0	7.554
58	420.0/315.0	5.622
59	425.0/345.0	6.059
60	425.0/495.0	149.4
61	430.0/325.0	5.435
62	430.0/355.0	6.017
63	435.0/335.0	5.890
64	435.0/370.0	7.462
65	445.0/320.0	6.863
66	445.0/375.0	6.341

Data Points
	200.0	205.0	210.0	215.0	220.0	225.0	230.0	235.0	240.0	245.0	250.0	255.0	260.0	265.0	270.0	275.0	280.0	285.0	290.0	295.0	300.0	305.0	310.0	315.0	320.0	325.0	330.0	335.0	340.0	345.0	350.0	355.0	360.0	365.0	370.0	375.0	380.0	385.0	390.0	395.0	400.0	405.0	410.0	415.0	420.0	425.0	430.0	435.0	440.0	445.0	450.0
280.0	-26.20	58.00	62.39	64.41	2.599	24.31	19.76	6.866	6.048	27.72	38.34	73.02	46.37	20.96	16.28	 1305	 8065	 3411	118.9	13.71	11.67	12.18	11.32	11.26	8.409	5.171	4.729	6.123	3.654	4.228	4.258	2.625	3.992	5.090	3.318	3.927	2.441	2.274	2.033	2.488	1.791	1.045	1.070	1.911	1.692	1.391	1.460	1.047	0.916	1.408	1.071
285.0	159.9	131.1	174.4	160.4	215.8	128.2	90.74	61.71	43.10	93.81	119.4	105.4	183.9	121.5	85.17	160.2	 3065	9999.9	9999.9	714.5	27.12	19.24	13.31	13.20	9.040	8.950	7.923	5.286	6.086	4.713	6.247	5.149	4.781	5.588	4.740	3.990	3.853	2.859	2.687	2.740	3.257	2.509	1.385	1.770	1.555	1.340	1.371	1.848	1.662	1.331	1.586
290.0	267.9	262.4	350.9	327.9	352.3	273.0	231.8	116.6	99.47	129.3	178.3	174.2	228.4	409.3	321.5	289.7	437.9	 6842	9999.9	9999.9	981.0	28.45	24.01	15.96	17.04	11.62	9.273	6.374	8.429	7.454	5.918	5.126	5.321	6.189	6.143	5.151	3.455	4.458	3.047	2.431	2.978	2.439	2.135	2.072	1.199	1.969	2.580	2.524	2.388	1.676	2.331
295.0	392.1	482.5	407.0	460.5	652.7	570.0	381.3	264.6	173.8	181.3	217.5	250.3	303.0	513.8	813.6	607.5	550.4	809.2	9999.9	9999.9	9999.9	 1239	34.34	30.69	24.04	17.06	12.64	9.942	8.450	6.623	5.549	7.894	5.045	7.147	4.756	5.166	5.988	4.620	3.528	3.228	2.772	1.887	2.847	1.852	2.169	2.864	2.725	2.976	2.143	2.054	2.164
300.0	624.4	762.0	584.7	645.3	776.6	691.3	673.9	440.9	338.8	273.7	278.7	339.2	410.8	581.3	 1055	 1258	925.3	566.5	859.0	9999.9	9999.9	9999.9	 1336	43.70	31.68	26.55	21.38	14.97	11.43	11.44	10.25	8.303	6.220	7.963	5.413	6.444	6.043	4.363	5.825	3.369	2.658	3.997	3.156	3.495	3.048	2.811	2.865	3.732	3.409	3.287	3.076
305.0	541.8	856.7	679.8	798.9	992.4	857.3	859.2	565.6	403.4	386.5	335.4	428.0	559.1	768.5	 1127	 1686	 1508	870.6	452.6	785.6	9999.9	9999.9	9999.9	 1514	54.43	32.70	29.18	20.17	15.46	12.31	8.589	9.880	9.465	7.989	6.393	5.328	5.996	5.012	5.333	4.752	3.284	4.472	3.713	3.756	2.821	3.435	3.856	2.882	3.588	4.165	4.023
310.0	675.7	908.0	949.9	897.3	975.3	 1059	 1064	729.0	540.8	474.8	488.4	534.6	670.4	851.3	 1160	 1542	 1862	 1240	514.4	272.4	759.7	9999.9	9999.9	9999.9	 1525	49.86	40.31	31.44	26.56	17.83	12.44	12.89	7.953	7.202	6.733	7.981	6.317	4.539	4.370	4.872	5.269	5.144	3.090	4.183	4.037	4.160	3.679	2.987	3.035	4.358	4.023
315.0	796.8	921.4	729.9	868.5	 1251	 1169	 1073	778.6	662.3	568.2	585.7	645.8	738.8	895.3	 1200	 1495	 1610	 1634	730.4	294.8	205.4	746.1	9999.9	9999.9	9999.9	 1317	59.67	44.26	35.90	28.53	17.01	11.98	11.30	8.925	7.906	7.141	6.975	5.587	6.209	5.830	4.588	4.768	3.134	3.285	5.622	4.079	2.895	3.740	4.958	5.108	5.837
320.0	545.2	777.2	669.8	898.9	 1017	 1178	 1138	843.7	707.9	688.3	667.3	740.6	714.0	 1000	 1179	 1500	 1506	 1372	 1219	478.3	215.1	169.3	728.8	9999.9	9999.9	9999.9	 1319	66.55	43.96	30.55	27.29	19.78	15.66	12.06	9.563	7.294	8.302	5.284	7.554	5.552	5.373	4.342	4.578	4.595	2.957	4.264	3.873	3.672	3.613	6.863	5.594
325.0	538.5	875.9	893.4	814.4	859.0	 1134	 1044	935.5	729.3	689.1	721.9	758.4	810.3	878.6	 1195	 1417	 1480	 1239	 1058	863.0	326.4	164.9	146.1	724.6	9999.9	9999.9	9999.9	 1463	73.25	48.60	35.76	26.28	20.44	16.96	11.97	12.66	10.59	9.018	5.773	7.222	4.406	5.118	5.167	4.453	4.779	3.672	5.435	3.106	4.246	4.517	5.059
330.0	584.7	843.6	692.1	704.5	907.1	 1030	 1072	886.2	779.8	743.5	788.3	761.9	802.8	886.0	 1156	 1366	 1359	 1156	843.8	822.3	622.9	207.7	120.1	129.8	713.3	9999.9	9999.9	9999.9	 1402	73.43	50.75	38.25	30.64	20.08	15.09	13.40	10.47	9.775	7.310	7.750	5.714	6.059	4.176	5.005	3.485	3.970	4.172	3.332	4.614	3.738	4.763
335.0	474.4	753.0	686.5	767.6	934.9	 1012	979.5	873.2	748.9	765.8	762.3	813.3	770.0	901.3	 1106	 1286	 1335	 1145	857.4	600.0	695.2	422.9	153.0	112.2	135.3	720.6	9999.9	9999.9	9999.9	 1442	78.17	57.09	39.63	27.12	22.72	13.57	10.34	9.675	9.013	9.198	5.138	6.134	5.690	5.556	4.482	4.780	4.634	5.890	4.167	3.829	4.477
340.0	464.9	700.5	789.5	870.1	864.0	861.9	 1048	898.3	805.8	792.8	747.3	775.0	824.2	891.8	 1035	 1204	 1270	 1160	839.9	574.7	451.8	604.0	317.2	145.3	118.4	138.4	728.4	9999.9	9999.9	9999.9	 1573	81.32	55.16	42.16	31.07	23.34	14.96	12.11	10.21	7.332	5.774	5.544	4.606	4.003	5.712	4.804	4.991	4.662	4.853	3.500	4.613
345.0	382.5	633.2	787.1	757.6	836.8	878.2	 1040	846.4	705.2	757.9	719.1	762.3	778.3	828.4	 1021	 1136	 1186	 1072	807.6	569.2	402.9	404.8	583.5	263.0	150.0	128.1	150.5	733.4	9999.9	9999.9	9999.9	 1707	76.94	57.93	36.88	30.88	19.46	11.03	10.80	9.290	6.758	5.340	5.774	4.425	4.959	6.059	4.161	4.240	4.828	3.466	5.130
350.0	410.8	509.5	587.0	549.6	798.0	855.5	890.8	748.9	668.3	756.6	749.8	759.3	731.0	786.8	925.7	 1065	 1084	 1005	846.8	591.0	422.7	357.4	467.1	526.6	254.0	176.0	150.5	154.4	735.1	9999.9	9999.9	9999.9	 1689	86.29	58.26	39.70	27.73	21.35	12.54	12.86	7.776	6.441	4.761	4.707	5.051	4.486	3.664	4.475	4.579	3.938	5.051
355.0	430.0	486.7	570.7	634.2	821.5	897.8	773.3	697.3	775.3	698.9	730.1	716.5	734.0	730.3	798.3	 1028	 1049	938.4	816.6	626.2	455.3	349.0	366.4	493.1	532.1	277.9	195.1	162.6	179.0	740.5	9999.9	9999.9	9999.9	 1780	88.76	57.42	37.99	25.70	18.42	14.11	9.145	7.974	6.346	6.436	5.633	4.244	6.017	4.112	5.297	4.354	5.768
360.0	353.3	433.0	632.7	486.9	641.2	807.9	724.8	717.1	664.4	671.2	646.6	729.6	676.9	735.3	786.5	934.7	 1010	922.9	782.3	646.9	501.7	419.0	390.2	412.8	604.6	487.4	269.9	216.2	187.8	168.1	743.3	9999.9	9999.9	9999.9	 1661	76.36	60.27	35.58	26.23	21.91	11.94	10.27	7.747	6.076	4.800	5.291	4.505	4.874	4.960	4.604	4.074
365.0	376.3	364.2	507.2	613.8	593.7	715.1	785.9	675.3	729.9	665.4	674.5	663.7	662.6	714.9	808.9	852.8	945.1	908.4	772.7	641.6	551.4	474.0	453.1	420.1	473.7	633.6	466.2	291.7	227.3	188.6	176.9	732.7	9999.9	9999.9	9999.9	 1836	76.35	51.67	31.94	27.05	16.96	12.88	7.682	8.578	6.418	4.925	5.139	4.851	5.817	4.601	4.476
370.0	360.7	491.2	605.3	515.5	483.1	628.3	721.9	740.5	643.1	665.6	661.5	680.7	675.3	658.2	701.0	892.3	880.3	857.3	787.0	650.6	600.2	542.1	516.8	494.4	492.9	544.9	663.7	441.0	293.7	222.1	168.0	173.6	739.6	9999.9	9999.9	9999.9	 1731	74.42	46.44	36.09	21.82	14.57	11.45	8.783	6.500	5.143	6.063	7.462	4.605	4.092	5.248
375.0	276.8	466.4	372.6	608.0	624.0	638.4	627.2	687.3	686.9	680.4	713.5	662.6	680.1	680.8	763.0	821.2	885.5	854.8	776.3	691.4	586.6	580.8	561.7	569.2	551.6	517.1	599.7	649.6	396.1	286.1	221.8	177.5	156.1	730.7	9999.9	9999.9	9999.9	 1814	65.15	51.33	30.21	19.94	14.19	11.34	8.409	6.006	6.996	5.364	3.544	6.341	4.687
380.0	401.1	402.6	601.5	475.0	676.0	674.9	744.1	683.5	751.7	671.9	750.2	694.3	670.8	682.6	745.6	824.1	839.6	843.2	796.4	687.8	647.6	630.1	619.3	599.9	603.5	544.7	551.8	661.1	599.5	384.5	278.2	228.4	161.6	169.4	727.8	9999.9	9999.9	9999.9	 1614	72.04	43.71	28.99	22.07	14.64	10.38	5.793	8.722	5.301	4.229	5.290	4.611
385.0	178.3	391.4	496.3	477.0	686.9	610.7	675.9	677.3	718.9	764.2	719.2	726.2	701.3	705.3	714.5	817.0	825.7	879.8	818.2	741.4	688.3	654.7	680.3	658.6	655.7	619.7	609.2	581.1	680.2	564.3	360.5	274.9	215.5	168.1	158.3	724.8	 9732	9999.9	9999.9	 1870	61.00	42.12	26.72	17.89	11.65	9.030	8.292	7.421	5.499	4.962	3.948
390.0	222.1	394.9	396.7	628.6	599.2	644.0	636.8	675.0	746.2	742.1	763.1	727.6	722.2	696.1	756.9	861.7	891.0	832.0	809.8	741.2	717.6	698.9	707.8	725.4	716.1	664.3	663.4	627.5	639.4	680.5	532.2	350.3	284.1	218.3	175.4	166.9	711.3	 8940	9999.9	9999.9	 1463	51.25	35.03	24.58	21.89	13.80	9.812	6.506	7.095	4.803	5.185
395.0	302.7	445.6	371.2	597.9	692.7	637.7	751.5	618.0	790.1	741.2	848.5	756.4	737.7	737.8	806.0	865.5	914.0	896.3	835.1	813.4	755.2	729.3	782.6	766.3	797.6	771.3	746.0	671.3	660.4	651.7	691.3	492.8	348.0	297.5	234.6	172.5	164.4	659.4	 8410	9999.9	9999.9	 1493	52.58	35.90	25.42	18.16	11.13	9.677	8.229	6.997	5.400
400.0	397.5	357.4	375.4	518.9	632.5	717.7	739.9	783.5	886.6	803.0	789.0	842.7	797.1	831.5	940.9	999.2	 1077	978.1	871.5	809.3	774.8	775.6	806.6	808.1	831.8	794.2	804.8	764.4	714.9	655.2	694.0	686.3	477.4	382.2	312.5	235.7	174.2	161.7	619.4	 8634	9999.9	9999.9	 1331	48.72	33.47	22.05	15.87	11.74	9.786	6.307	4.866
405.0	259.6	466.2	485.9	579.5	605.7	669.5	800.9	823.9	859.9	857.5	869.2	861.0	863.3	954.5	 1018	 1110	 1166	 1052	914.7	826.0	801.1	792.6	850.0	869.6	845.6	861.0	852.8	817.4	776.1	754.7	730.0	765.1	696.9	509.0	404.6	316.1	235.7	166.2	146.7	671.4	 7274	9999.9	9999.9	 1186	45.48	33.96	21.69	15.29	10.98	9.098	6.641
410.0	253.7	438.1	623.9	692.7	651.1	664.5	811.2	832.6	900.6	926.4	956.1	879.6	927.5	 1041	 1233	 1241	 1333	 1114	 1018	859.9	829.7	814.8	856.5	893.7	885.9	911.5	905.4	880.9	883.4	849.4	791.3	766.5	818.6	694.8	512.8	404.0	288.2	218.0	149.7	227.6	536.4	 6951	9999.9	9999.9	 1089	40.76	27.56	18.67	14.30	10.59	7.204
415.0	248.7	468.0	616.6	634.4	660.4	802.8	876.4	864.9	951.6	994.5	961.8	 1002	 1092	 1213	 1361	 1493	 1472	 1274	 1002	851.8	819.4	829.8	865.7	891.9	922.4	972.6	961.2	968.0	959.2	906.3	884.5	853.4	844.1	862.3	662.1	502.4	381.8	273.8	186.9	221.7	127.2	504.0	 6530	9999.9	9999.9	 1084	42.82	25.90	16.70	13.21	11.72
420.0	337.0	499.6	550.7	717.6	668.4	608.0	843.7	898.0	978.0	 1036	 1007	 1057	 1146	 1347	 1515	 1650	 1648	 1426	 1052	885.8	825.4	851.2	893.4	917.1	961.9	980.0	 1011	 1034	995.8	991.6	977.9	931.0	890.8	877.6	824.2	607.7	451.4	327.8	234.2	250.4	117.1	107.5	471.4	 6233	9999.9	9999.9	 1028	37.33	25.51	17.24	14.82
425.0	269.5	582.9	414.2	693.7	741.4	737.1	878.4	 1039	 1036	 1077	 1111	 1132	 1274	 1393	 1726	 1899	 1836	 1521	 1080	873.6	823.6	819.3	865.9	924.4	957.0	 1001	 1035	 1058	 1054	 1065	 1038	 1028	976.9	920.9	911.8	774.2	529.5	383.2	275.7	272.1	138.9	97.26	100.8	451.4	 5839	9999.9	9999.9	817.1	36.08	23.49	18.75
430.0	247.4	405.7	446.4	681.0	760.4	772.5	872.3	826.8	 1055	 1154	 1159	 1134	 1332	 1496	 1756	 1954	 1859	 1581	 1119	875.7	808.7	815.4	875.0	921.4	970.6	995.3	 1040	 1100	 1112	 1087	 1096	 1085	 1029	963.2	898.5	830.1	643.4	436.6	311.8	288.3	160.5	120.1	83.30	96.39	419.0	 5576	9999.9	9999.9	703.9	30.21	21.25
435.0	306.2	374.4	560.2	698.2	770.7	862.5	898.8	999.2	 1091	 1153	 1156	 1137	 1308	 1553	 1822	 1987	 1957	 1629	 1135	847.9	783.1	781.5	872.1	907.6	962.1	 1001	 1055	 1095	 1129	 1139	 1135	 1104	 1084	 1023	940.3	810.6	716.4	516.1	345.2	323.1	189.6	122.4	98.06	75.90	81.52	400.8	 5402	9999.9	9999.9	703.8	34.09
440.0	239.8	389.4	575.4	619.7	859.6	722.3	860.8	915.3	 1068	 1086	 1178	 1201	 1324	 1538	 1863	 2032	 2003	 1583	 1139	858.8	771.2	762.2	814.1	869.1	933.0	975.4	 1050	 1103	 1121	 1118	 1159	 1129	 1087	 1039	956.2	787.0	692.5	602.7	405.0	355.2	209.7	154.3	114.2	90.23	70.49	83.84	382.5	 5526	9999.9	9999.9	628.0
445.0	220.4	321.9	466.3	660.1	675.1	825.3	829.3	893.8	 1072	 1128	 1138	 1164	 1370	 1553	 1892	 2044	 1930	 1584	 1065	822.2	753.8	776.1	754.8	824.6	895.3	945.1	996.8	 1057	 1074	 1117	 1145	 1134	 1102	 1018	940.5	809.2	671.6	582.6	466.7	386.4	238.8	168.3	131.2	105.2	84.13	64.59	75.77	394.5	 5454	9999.9	9999.9
450.0	220.1	407.4	422.5	544.7	676.0	701.7	791.6	861.1	925.0	 1024	 1110	 1106	 1316	 1473	 1748	 1942	 1867	 1549	 1020	787.8	692.1	693.3	749.0	781.0	832.3	893.6	951.8	995.5	 1027	 1080	 1050	 1071	 1061	999.7	917.5	817.4	646.3	525.9	466.1	404.6	245.4	186.4	141.3	122.2	94.50	77.89	65.33	75.43	382.5	 5029	9999.9
455.0	271.2	432.3	416.9	627.0	540.5	683.4	855.1	860.1	921.0	994.2	 1026	 1135	 1257	 1395	 1716	 1785	 1783	 1435	999.8	731.9	660.8	655.6	696.3	747.1	772.9	846.3	886.3	936.8	984.8	 1009	 1028	 1031	 1004	961.7	880.0	774.5	639.9	514.4	420.4	435.3	280.0	197.9	152.8	130.3	106.3	88.03	71.53	63.09	70.39	352.9	 4970
460.0	154.5	267.3	384.2	477.4	596.0	663.4	777.3	792.6	853.7	850.1	973.1	 1041	 1112	 1363	 1594	 1751	 1674	 1331	933.2	672.7	615.0	617.5	642.5	691.4	724.1	774.4	830.6	852.2	897.0	929.1	943.9	970.6	943.6	920.0	844.9	731.5	611.3	484.9	399.3	398.0	312.2	226.1	165.7	137.4	113.9	100.3	79.07	65.79	56.02	69.11	346.0
465.0	209.4	268.8	336.8	403.4	426.2	621.7	656.9	780.4	837.6	877.0	903.7	966.1	 1045	 1210	 1438	 1570	 1560	 1229	862.6	635.8	555.0	567.7	596.1	610.1	672.9	730.5	760.7	796.3	835.1	863.1	877.6	888.1	881.6	854.6	778.4	683.9	569.9	473.5	377.4	350.8	294.0	256.0	187.5	150.7	125.0	103.2	81.97	73.61	58.26	48.77	64.51
470.0	183.8	404.5	396.3	434.5	442.2	542.5	535.1	698.0	780.4	801.3	807.7	854.9	934.7	 1149	 1285	 1456	 1404	 1166	759.3	571.3	504.6	504.0	543.3	575.3	601.2	650.3	687.5	720.7	730.3	771.2	798.0	790.9	797.6	768.8	750.7	642.1	550.9	447.9	354.9	333.4	258.2	252.3	212.9	154.3	125.6	108.2	88.65	80.13	62.69	52.37	43.28
475.0	144.8	244.3	285.0	419.8	376.6	481.9	503.8	566.8	677.0	667.1	739.4	745.7	935.4	991.6	 1220	 1329	 1251	 1025	731.7	562.5	446.7	463.3	469.5	513.7	550.9	585.8	636.3	658.2	667.9	704.0	721.8	715.3	719.6	697.7	659.5	584.3	500.8	410.2	343.3	314.6	242.5	219.2	227.5	179.8	139.3	112.5	90.22	75.63	64.87	55.10	44.88
480.0	206.2	204.4	266.8	380.1	367.7	396.3	520.4	548.8	551.6	659.6	650.7	766.5	762.2	941.6	 1068	 1209	 1100	921.4	644.8	495.1	441.6	434.8	446.6	480.7	491.0	530.6	563.2	580.3	624.2	637.2	625.2	645.7	651.3	638.9	619.1	540.3	464.9	394.5	319.6	285.5	222.5	195.9	198.7	196.4	143.1	119.4	97.79	84.53	67.77	56.83	46.25
485.0	216.1	346.6	321.2	417.9	316.7	358.1	455.7	474.4	568.0	624.2	636.7	689.4	714.0	840.1	977.6	 1056	994.5	838.2	591.6	435.9	409.5	382.9	413.7	420.6	447.5	488.3	503.6	523.4	552.6	570.6	557.1	602.7	607.2	591.1	544.6	501.8	431.0	373.8	303.2	278.2	226.1	193.5	173.7	181.7	170.4	121.3	96.89	83.88	70.95	61.77	55.56
490.0	177.7	307.2	307.2	282.9	283.8	398.5	372.5	435.3	477.8	552.0	595.4	574.6	699.0	760.3	899.2	962.3	951.5	786.1	533.8	421.3	367.2	337.9	368.5	406.3	419.9	437.4	454.8	486.1	517.0	525.4	523.8	531.2	535.1	527.4	517.2	449.9	403.4	339.0	286.7	263.4	210.9	182.3	171.6	156.3	169.0	146.1	107.2	91.61	75.62	62.81	56.36
495.0	14.16	220.9	182.7	237.7	262.5	288.2	340.8	413.9	513.9	485.8	522.7	555.1	617.8	694.6	810.8	836.0	823.9	693.7	466.0	400.8	321.7	323.2	347.5	340.6	375.7	396.7	428.7	417.1	442.0	474.9	475.0	486.5	485.9	466.0	451.1	426.0	366.5	308.3	278.4	250.8	204.5	178.5	169.0	145.9	147.7	149.4	120.0	87.27	79.70	65.37	56.66
500.0	117.4	129.8	134.3	242.0	172.7	290.4	284.9	329.1	408.4	472.6	431.4	516.6	591.4	597.2	737.9	734.9	708.0	598.0	443.1	326.7	297.1	290.4	298.3	311.3	342.6	348.6	364.4	384.0	413.3	416.5	418.4	436.4	442.5	427.2	411.0	379.8	338.7	287.9	246.4	226.7	187.7	165.1	157.6	136.8	129.6	137.3	128.4	93.03	81.38	68.94	56.22
505.0	77.88	139.5	233.9	249.3	337.9	275.5	281.4	340.6	371.0	415.2	436.5	478.3	486.7	547.7	632.8	674.5	639.0	548.2	384.5	299.0	269.6	270.3	270.1	292.2	295.1	300.9	326.1	342.6	346.4	376.2	378.4	388.4	386.0	390.8	372.5	326.1	298.0	265.8	235.6	202.1	172.1	165.7	148.5	129.2	119.6	111.3	124.2	108.0	81.61	69.24	57.60
510.0	78.56	168.0	249.8	249.4	183.4	267.6	201.3	316.1	322.9	369.6	386.9	441.3	433.8	519.0	556.9	573.0	573.2	509.9	373.1	284.5	247.0	245.5	253.4	240.4	274.7	283.1	297.7	286.3	322.7	324.2	345.0	346.9	335.0	338.7	325.4	296.3	272.9	231.0	204.3	190.4	165.7	148.2	131.4	128.1	111.5	101.3	102.6	99.78	93.13	67.69	57.93
515.0	65.76	112.4	184.1	245.9	159.9	199.7	227.5	275.1	279.1	319.1	360.1	362.8	430.7	466.3	501.2	522.2	489.9	426.0	332.4	258.3	222.4	219.1	216.4	225.3	235.4	232.5	250.5	271.1	287.5	290.5	301.0	302.4	288.2	294.0	289.7	271.4	235.6	219.7	194.8	173.7	148.7	139.6	124.8	112.9	106.4	101.8	90.74	93.62	89.78	75.45	57.50
520.0	74.80	114.3	167.6	193.4	147.8	142.8	135.1	250.0	287.8	307.8	322.5	316.5	383.4	391.8	432.1	449.3	427.9	354.4	301.9	234.8	214.0	206.6	204.3	187.4	218.7	222.4	223.0	232.8	244.3	244.1	264.2	271.5	254.7	275.7	261.0	232.8	219.4	193.0	175.2	151.5	131.1	122.8	116.4	104.9	100.1	90.92	83.95	78.71	85.45	80.77	61.47
525.0	9.474	131.9	105.9	149.7	170.1	150.5	142.5	198.6	230.4	278.7	293.0	278.0	298.3	360.7	381.5	415.6	403.2	333.9	261.9	225.1	191.1	176.0	187.0	185.8	184.4	197.8	185.4	211.9	201.1	220.0	229.7	230.0	227.2	224.3	229.1	212.8	200.9	165.6	160.6	133.7	118.1	113.1	107.0	95.06	90.86	85.57	77.02	72.41	69.17	77.76	67.21
530.0	50.28	127.6	97.31	121.9	137.6	187.3	189.1	144.3	201.8	216.9	232.9	271.1	283.1	332.5	361.2	354.9	355.0	301.4	222.1	198.2	181.4	164.5	163.4	160.0	163.8	182.6	157.3	187.4	181.2	204.3	195.6	193.8	204.0	208.9	197.1	191.8	172.8	150.8	147.8	123.3	110.4	104.7	102.8	86.73	83.16	79.03	70.69	66.53	66.13	64.10	65.03
535.0	62.21	79.36	52.03	162.4	139.6	86.26	132.6	121.2	173.0	206.5	191.4	205.6	251.7	260.1	295.5	297.2	293.5	253.2	202.5	178.4	160.4	144.4	137.8	134.9	148.1	145.7	152.5	161.1	175.1	167.0	159.4	167.4	179.1	178.6	172.1	158.5	156.1	126.1	119.6	116.1	110.4	94.35	87.68	82.68	77.14	70.70	68.86	66.70	54.37	55.07	60.00
540.0	25.60	34.74	100.5	99.72	99.14	121.1	126.1	139.8	149.8	184.6	197.9	176.2	237.2	226.6	306.3	294.1	249.5	242.7	193.3	159.5	136.3	136.6	128.6	123.2	126.7	131.8	130.8	144.9	143.3	142.0	140.3	143.1	152.7	158.0	143.9	132.4	127.3	121.9	106.6	100.6	85.19	80.83	80.37	77.46	67.97	66.87	62.80	57.25	52.35	46.19	44.98
545.0	88.49	33.99	137.0	126.1	88.97	91.38	95.88	160.2	137.9	142.3	175.1	172.9	193.2	207.6	278.3	355.2	240.8	205.0	179.3	128.6	122.7	114.8	113.6	115.0	118.3	116.8	120.2	120.1	136.7	125.4	128.6	132.5	131.4	141.1	130.3	123.0	115.3	104.2	95.95	87.30	82.95	78.81	76.60	68.92	62.57	61.39	53.73	51.51	49.38	43.05	40.08
550.0	37.23	-0.961	89.22	86.84	101.0	55.03	123.6	131.0	86.87	138.7	128.0	177.6	174.4	185.9	217.2	509.0	311.0	193.7	151.0	126.0	105.3	107.7	108.3	110.3	100.3	116.3	105.3	115.9	118.9	118.1	118.1	117.6	121.7	114.8	122.3	119.7	105.8	96.70	85.28	82.86	71.46	71.88	68.15	64.50	60.51	51.71	54.96	50.94	42.93	43.15	36.25
