Sample:	'SLABO1-5-5-320
File name:	1P1.FD3
Run Date:	16:03:26, 08/17/2022
Operator:	Administrator
Comment:	'

Instrument
Model:	F-7000 FL Spectrophotometer
Serial Number:	2354-007
ROM Version:	5J14000 06

Instrument Parameters
Measurement type:	3-D Scan
Data mode:	Fluorescence
EX  Start WL:	200.0 nm
EX  End WL:	450.0 nm
EX Sampling Interval:	5.0 nm
EM  Start WL:	280.0 nm
EM  End WL:	550.0 nm
EM Sampling Interval:	5.0 nm
Scan speed:	12000 nm/min
EX Slit:	5.0 nm
EM Slit:	5.0 nm
PMT Voltage:	700 V
Response:	Auto 
Corrected spectra:	Off
Shutter control:	On
Contour interval:	25.000

Peak integration
Integration method:	Rectangular
Sensitivity:	1
Threshold:	1.000

Peaks
No.	ApexEX/EM(nm)	Height(Data)
1	205.0/310.0	837.0
2	205.0/440.0	484.9
3	205.0/535.0	147.5
4	210.0/455.0	552.8
5	210.0/470.0	440.0
6	210.0/490.0	318.4
7	215.0/535.0	141.7
8	220.0/360.0	 1412
9	220.0/505.0	305.2
10	220.0/525.0	216.5
11	220.0/540.0	174.7
12	225.0/355.0	 1546
13	225.0/365.0	 1492
14	225.0/375.0	 1371
15	225.0/405.0	 1046
16	225.0/420.0	984.9
17	230.0/400.0	 1158
18	230.0/410.0	 1081
19	230.0/440.0	889.8
20	230.0/530.0	207.0
21	235.0/425.0	976.2
22	245.0/440.0	 1029
23	250.0/290.0	688.9
24	250.0/370.0	830.4
25	250.0/410.0	964.6
26	250.0/430.0	 1038
27	250.0/465.0	862.2
28	255.0/435.0	 1018
29	275.0/305.0	968.5
30	275.0/440.0	 1359
31	280.0/310.0	 1155
32	280.0/370.0	 1503
33	280.0/420.0	 1332
34	285.0/315.0	 1106
35	290.0/320.0	950.4
36	300.0/335.0	769.2
37	305.0/340.0	742.8
38	310.0/345.0	706.3
39	315.0/350.0	636.5
40	315.0/415.0	821.0
41	320.0/360.0	688.0
42	325.0/365.0	726.8
43	325.0/420.0	849.5
44	330.0/370.0	757.0
45	330.0/415.0	842.7
46	335.0/380.0	728.5
47	340.0/385.0	717.8
48	340.0/425.0	873.9
49	345.0/390.0	715.9
50	345.0/440.0	870.6
51	350.0/400.0	702.2
52	355.0/405.0	707.9
53	360.0/410.0	728.2
54	365.0/420.0	751.7
55	370.0/425.0	739.7
56	390.0/295.0	7.430
57	420.0/325.0	8.690
58	425.0/495.0	160.0
59	430.0/325.0	7.361
60	430.0/345.0	8.477
61	435.0/310.0	5.818
62	435.0/510.0	106.3
63	440.0/325.0	7.385
64	440.0/515.0	92.73
65	445.0/520.0	81.33

Data Points
	200.0	205.0	210.0	215.0	220.0	225.0	230.0	235.0	240.0	245.0	250.0	255.0	260.0	265.0	270.0	275.0	280.0	285.0	290.0	295.0	300.0	305.0	310.0	315.0	320.0	325.0	330.0	335.0	340.0	345.0	350.0	355.0	360.0	365.0	370.0	375.0	380.0	385.0	390.0	395.0	400.0	405.0	410.0	415.0	420.0	425.0	430.0	435.0	440.0	445.0	450.0
280.0	81.01	44.55	38.12	66.68	46.17	29.70	63.31	27.34	81.71	100.5	214.6	219.1	115.1	53.54	29.98	 2702	9999.9	 5314	122.3	27.54	22.78	20.65	17.44	9.642	13.26	10.83	7.856	10.18	6.068	8.718	9.574	8.203	7.127	5.938	6.209	6.100	6.023	3.139	3.895	4.383	4.127	3.485	2.955	1.975	3.091	2.375	2.556	3.172	2.268	1.835	2.227
285.0	213.0	147.2	178.3	131.6	128.1	133.9	134.0	101.2	128.9	355.3	494.9	474.1	380.2	166.8	74.31	208.7	 6104	9999.9	9999.9	903.2	36.87	35.65	28.96	23.11	17.33	12.94	14.83	11.01	8.210	8.238	8.553	9.005	6.542	5.687	5.905	8.580	5.771	5.656	5.440	4.474	5.136	3.289	3.937	3.622	3.084	3.233	3.280	2.239	2.634	1.524	2.126
290.0	344.0	303.8	266.2	287.5	277.8	295.7	245.1	214.6	211.2	512.5	688.9	613.6	491.1	396.9	203.7	135.0	525.7	9999.9	9999.9	9999.9	 1147	47.92	38.54	33.51	30.79	17.67	15.64	15.14	10.62	11.71	8.426	8.566	9.555	7.949	7.837	7.201	6.844	6.211	4.777	4.595	4.725	5.379	5.203	3.838	3.485	3.243	3.221	2.802	2.146	3.530	3.425
295.0	540.1	460.8	405.4	407.2	425.7	424.8	352.2	255.9	289.8	533.2	674.3	652.4	499.2	469.5	519.5	337.1	263.5	841.0	9999.9	9999.9	9999.9	 1440	57.12	54.57	37.03	28.86	24.08	20.49	11.77	13.09	10.94	8.594	10.82	8.033	7.828	7.812	7.177	6.082	7.430	5.349	6.014	4.764	5.473	4.468	3.771	3.913	4.405	3.837	2.988	3.521	5.240
300.0	703.7	574.3	547.4	534.2	589.7	670.3	484.2	368.7	330.9	438.5	594.6	565.5	453.7	413.8	647.8	734.4	436.7	349.9	842.2	9999.9	9999.9	9999.9	 1497	71.50	44.97	42.06	31.93	23.20	21.26	17.88	13.81	12.83	11.56	10.88	8.399	9.160	8.623	6.545	6.277	7.247	5.928	5.348	4.811	5.052	4.247	3.956	5.206	3.661	4.030	4.380	4.338
305.0	746.9	634.5	673.4	558.6	757.4	731.3	653.9	419.2	336.4	407.1	478.6	491.4	407.1	414.7	505.5	968.5	815.0	433.0	286.1	786.2	9999.9	9999.9	9999.9	 1668	81.36	64.28	44.83	35.72	24.40	22.01	16.09	17.73	15.03	11.85	11.41	8.395	7.307	8.962	7.916	6.002	6.638	5.130	5.418	5.538	5.083	4.120	4.794	4.221	5.147	5.431	4.920
310.0	831.0	837.0	688.1	637.7	682.2	746.9	670.6	406.1	327.4	347.5	422.1	381.7	429.0	450.1	518.3	720.8	 1155	745.9	297.0	204.1	765.3	9999.9	9999.9	9999.9	 1698	87.40	66.97	53.36	39.87	29.22	20.51	16.71	19.18	14.11	11.48	11.31	11.54	9.321	7.713	6.450	8.237	8.035	5.756	5.766	5.487	4.748	5.628	5.818	4.566	4.799	5.550
315.0	724.3	701.9	615.8	672.7	868.3	803.1	622.9	431.4	319.6	316.7	376.7	367.6	407.9	500.2	573.5	671.0	873.3	 1106	541.9	206.3	188.0	787.9	9999.9	9999.9	9999.9	 1457	93.34	67.64	50.60	36.33	26.64	23.42	20.22	14.57	14.13	13.25	12.12	9.181	9.561	7.803	7.987	5.915	5.682	6.242	6.332	5.469	6.389	4.453	4.881	5.610	5.302
320.0	733.8	721.0	627.2	773.0	915.3	868.0	711.5	536.4	369.5	304.8	357.5	369.7	428.7	505.5	616.4	755.2	752.9	903.0	950.4	353.0	192.7	200.1	803.4	9999.9	9999.9	9999.9	 1457	99.62	71.70	54.83	40.91	28.86	24.15	18.87	16.31	15.41	12.25	10.76	11.23	7.586	8.781	7.512	6.567	6.678	7.582	5.972	5.927	6.904	5.454	5.830	5.549
325.0	561.3	674.1	785.1	794.0	982.0	 1059	844.5	576.6	370.3	347.5	386.2	401.3	487.1	563.2	755.4	855.5	868.9	842.1	914.9	781.5	299.4	185.6	201.3	810.2	9999.9	9999.9	9999.9	 1533	104.4	78.68	57.85	46.21	30.32	26.53	18.86	18.74	13.30	10.55	11.69	10.51	8.901	5.711	7.772	6.346	8.690	5.527	7.361	6.214	7.385	5.601	6.329
330.0	690.1	623.8	667.1	745.8	 1013	 1118	940.3	679.7	417.7	376.6	402.9	405.9	556.5	636.1	859.3	966.4	 1015	931.5	757.7	833.8	640.1	249.5	167.4	195.1	798.0	9999.9	9999.9	9999.9	 1520	112.5	78.55	61.16	43.46	31.47	22.07	18.58	13.90	14.81	11.35	8.130	8.772	9.477	9.332	6.910	7.278	5.362	5.927	7.448	6.162	6.594	7.790
335.0	520.5	714.5	697.6	842.0	 1100	 1264	 1049	697.4	536.9	400.3	445.9	490.7	618.4	760.1	 1006	 1096	 1143	 1079	853.2	671.6	769.2	515.3	220.7	171.8	194.8	775.2	9999.9	9999.9	9999.9	 1551	120.8	83.49	64.14	53.17	30.12	22.58	20.05	13.19	12.44	11.35	9.973	9.747	7.588	6.867	7.888	7.446	6.328	7.041	6.081	7.266	6.062
340.0	559.8	668.6	818.0	944.0	 1264	 1270	 1203	799.9	610.0	474.3	510.4	520.8	671.7	852.4	988.8	 1250	 1266	 1176	993.3	682.2	558.4	742.8	396.1	206.7	175.2	188.5	784.3	9999.9	9999.9	9999.9	 1711	123.5	83.98	63.69	48.70	34.78	22.73	17.92	13.80	10.03	10.59	10.16	8.800	6.745	6.656	6.831	6.604	7.104	6.458	8.109	7.704
345.0	509.4	549.3	792.6	970.8	 1128	 1520	 1163	860.2	664.2	600.4	536.5	579.8	736.6	892.9	 1179	 1301	 1331	 1297	 1042	769.1	544.2	523.1	706.3	347.2	216.1	178.4	198.5	802.5	9999.9	9999.9	9999.9	 1885	120.5	91.30	62.25	47.46	30.98	19.75	15.66	14.67	11.84	9.656	8.793	8.093	6.174	7.460	8.477	6.586	7.107	7.358	7.369
350.0	541.5	633.4	791.6	987.2	 1383	 1510	 1129	825.1	699.2	614.6	595.0	692.9	755.2	946.0	 1136	 1378	 1424	 1369	 1166	838.2	593.8	471.7	588.2	636.5	332.7	210.4	203.3	204.3	794.9	9999.9	9999.9	9999.9	 1911	121.0	89.14	59.54	44.83	29.42	22.78	16.38	11.88	9.444	8.829	8.391	7.660	8.802	7.925	7.400	6.642	8.313	7.366
355.0	503.4	622.7	886.1	997.5	 1257	 1546	 1298	890.8	647.7	671.6	646.5	674.7	791.3	927.6	 1278	 1423	 1481	 1421	 1283	878.4	656.8	527.2	467.6	623.6	609.1	329.7	264.8	216.7	220.0	795.2	9999.9	9999.9	9999.9	 1990	122.7	81.73	60.98	42.63	28.77	18.94	14.73	13.39	10.45	8.106	8.685	9.416	7.389	6.751	7.844	8.428	7.345
360.0	514.0	602.4	829.3	 1112	 1412	 1364	 1216	847.5	703.1	639.9	669.8	721.3	796.8	998.6	 1281	 1451	 1487	 1437	 1300	941.9	727.3	547.8	532.5	500.7	688.0	555.1	334.0	250.4	222.6	206.5	787.2	9999.9	9999.9	9999.9	 1864	125.3	83.61	59.07	39.05	25.94	19.11	15.75	10.02	10.37	9.595	8.472	7.559	9.582	8.447	8.466	9.100
365.0	418.9	540.0	851.0	 1157	 1278	 1492	 1227	916.6	750.6	738.4	715.4	741.0	878.0	999.6	 1297	 1434	 1500	 1422	 1267	951.8	764.0	637.0	565.2	526.4	562.1	726.8	538.1	335.9	268.2	229.2	212.1	801.2	9999.9	9999.9	9999.9	 2054	113.8	79.04	50.56	34.89	24.51	20.30	12.02	11.15	9.652	8.578	9.630	9.018	8.495	9.144	8.564
370.0	460.7	604.6	714.1	992.2	 1255	 1325	 1234	846.9	788.4	795.0	830.4	785.3	979.8	 1066	 1260	 1422	 1503	 1432	 1236	966.5	781.4	663.4	604.7	590.0	554.8	606.4	757.0	486.6	334.5	256.8	197.7	199.3	772.1	9999.9	9999.9	9999.9	 1985	105.7	74.12	51.57	35.41	26.71	16.96	14.81	11.43	10.21	9.521	8.866	9.593	9.502	8.707
375.0	587.0	653.3	673.9	937.3	 1173	 1371	 1180	842.1	818.8	797.4	774.1	828.1	901.9	 1081	 1188	 1369	 1412	 1377	 1239	996.7	815.7	708.2	680.1	647.6	622.6	601.4	697.7	704.0	432.0	309.7	255.9	201.3	189.9	773.2	9999.9	9999.9	9999.9	 2077	101.4	72.55	46.69	33.66	23.57	18.67	14.45	10.99	9.502	9.375	8.262	9.296	8.497
380.0	446.2	514.4	640.1	836.0	 1133	 1340	 1142	925.5	782.0	809.4	791.0	841.9	837.0	 1004	 1146	 1312	 1402	 1326	 1202	 1006	813.3	737.2	706.1	679.9	647.0	650.2	608.0	728.5	641.0	408.0	302.2	225.4	193.4	179.8	765.5	9999.9	9999.9	9999.9	 1830	90.61	61.93	43.04	31.84	21.20	14.92	12.41	11.47	10.15	8.880	8.660	8.900
385.0	482.2	542.8	684.9	948.9	952.6	 1221	 1051	941.4	830.3	832.7	821.3	799.6	842.4	 1007	 1128	 1243	 1289	 1282	 1183	959.2	806.0	775.2	733.1	722.7	703.3	666.8	645.5	636.0	717.8	575.7	383.7	292.0	229.4	178.5	182.4	768.7	9999.9	9999.9	9999.9	 1889	87.15	67.21	40.07	29.36	20.02	15.60	13.04	11.28	8.294	8.510	8.538
390.0	426.0	539.1	687.9	850.7	959.2	 1102	 1087	918.7	881.0	889.1	860.3	837.0	868.6	 1017	 1132	 1157	 1257	 1239	 1136	980.2	816.1	775.8	738.3	764.5	727.3	720.7	700.2	650.5	637.4	715.9	495.6	349.1	287.1	234.8	187.7	185.1	756.5	9999.9	9999.9	9999.9	 1775	85.08	55.89	38.96	26.81	20.86	14.85	12.33	10.39	8.130	8.216
395.0	444.6	467.2	657.8	799.9	986.2	 1089	 1008	964.1	846.9	885.4	877.9	830.4	886.4	961.6	 1096	 1174	 1271	 1198	 1106	915.1	816.9	779.9	786.7	776.5	773.4	748.7	733.2	684.2	637.8	633.0	673.4	473.1	354.3	271.7	237.4	191.3	198.9	744.3	9999.9	9999.9	9999.9	 1795	81.03	51.01	36.23	29.27	18.62	15.67	11.02	11.32	7.772
400.0	490.5	460.0	639.5	844.3	875.8	987.1	 1158	857.4	859.4	880.1	894.0	850.8	912.5	995.3	 1086	 1165	 1207	 1197	 1061	905.8	809.8	794.6	782.7	782.5	786.5	778.6	755.1	729.4	689.6	649.0	702.2	640.3	439.8	358.5	304.3	235.4	167.1	180.9	736.5	9999.9	9999.9	9999.9	 1549	74.32	48.17	34.56	25.86	18.31	13.58	11.74	9.010
405.0	409.1	478.6	650.5	674.0	853.4	 1046	 1010	917.7	886.0	879.4	884.9	894.3	912.9	 1028	 1145	 1188	 1151	 1172	 1028	885.6	809.9	790.9	793.8	791.8	803.4	803.3	788.0	763.4	740.0	692.4	631.9	707.9	626.8	449.9	360.9	285.6	225.7	168.4	168.9	729.4	9999.9	9999.9	9999.9	 1380	68.71	44.91	33.46	23.12	18.07	14.32	10.78
410.0	438.0	376.9	546.9	815.7	896.0	949.6	 1081	956.2	934.6	865.5	964.6	912.0	950.8	 1017	 1122	 1195	 1198	 1128	973.6	894.4	804.6	766.4	794.5	785.3	819.9	812.7	832.2	801.0	783.7	739.2	687.8	670.4	728.2	589.5	436.8	328.6	262.7	207.0	153.0	153.7	717.4	9999.9	9999.9	9999.9	 1272	63.44	41.97	29.54	21.89	17.39	13.48
415.0	358.3	432.6	505.2	759.1	886.6	890.1	 1013	982.5	927.3	936.8	906.9	893.5	959.9	 1064	 1178	 1227	 1263	 1146	 1008	856.1	802.3	768.5	760.1	821.0	801.9	810.5	842.7	825.4	814.7	788.5	725.2	702.0	699.2	733.0	544.7	418.2	323.0	246.6	171.1	132.9	138.5	707.4	9999.9	9999.9	9999.9	 1304	61.28	40.85	26.71	20.80	17.17
420.0	415.7	487.5	591.7	576.2	889.8	984.9	889.2	953.8	953.7	951.7	963.8	997.2	977.3	 1111	 1209	 1282	 1332	 1130	955.6	850.3	790.1	757.6	775.0	797.5	814.8	849.5	836.0	828.2	855.2	832.3	776.3	756.5	689.6	751.7	704.6	504.1	384.5	285.4	207.8	156.4	119.9	125.3	704.9	9999.9	9999.9	9999.9	 1147	54.99	37.62	27.92	21.32
425.0	347.2	535.2	557.5	657.5	843.5	946.4	914.2	976.2	925.5	940.3	931.3	958.4	 1065	 1079	 1274	 1333	 1328	 1110	941.1	842.5	735.7	717.1	724.8	756.0	806.6	837.0	838.4	860.1	873.9	835.6	823.6	787.0	748.4	703.1	739.7	618.7	433.9	320.8	239.7	170.8	140.4	97.29	115.2	696.0	9999.9	9999.9	9999.9	977.1	49.18	33.94	24.01
430.0	400.6	439.4	737.8	627.4	893.5	844.1	935.2	936.2	906.8	936.6	 1038	993.6	 1057	 1163	 1238	 1326	 1297	 1185	931.5	788.2	708.0	686.9	720.3	745.2	775.7	814.8	835.9	844.8	847.6	861.8	856.9	811.7	780.9	734.4	681.6	699.1	512.0	365.9	264.7	207.3	154.9	111.2	88.41	109.8	685.0	 9725	9999.9	9999.9	883.5	48.01	31.36
435.0	327.3	357.2	512.5	712.2	800.6	822.3	836.9	880.1	938.2	930.4	987.1	 1018	969.3	 1163	 1275	 1351	 1303	 1149	901.8	746.2	681.1	657.2	677.6	720.3	739.9	794.7	815.5	838.6	865.9	867.6	843.0	842.9	798.3	775.7	696.3	636.2	599.8	428.8	305.1	226.5	178.7	137.9	98.88	78.80	102.4	665.3	 9308	9999.9	9999.9	849.8	46.77
440.0	302.0	484.9	419.8	494.8	809.6	882.5	889.8	868.3	908.4	 1029	950.7	995.2	 1046	 1149	 1256	 1359	 1287	 1152	898.6	761.5	670.2	660.0	654.2	714.6	732.6	750.5	775.0	824.5	816.1	870.6	838.4	842.1	813.6	782.8	722.0	626.7	587.0	513.9	337.6	245.7	200.4	153.8	115.5	88.02	77.40	101.5	637.2	 9062	9999.9	9999.9	765.4
445.0	387.8	427.1	587.7	530.3	735.4	789.5	810.5	852.4	916.5	952.0	968.1	967.8	 1055	 1185	 1216	 1340	 1282	 1075	866.6	698.2	644.0	628.2	659.4	691.6	686.5	726.8	744.4	780.6	815.4	813.4	812.5	833.8	798.8	774.1	702.5	629.5	532.9	499.4	407.8	277.9	208.1	164.8	126.9	93.08	77.92	70.99	99.01	619.8	 9191	9999.9	9999.9
450.0	332.2	451.5	512.3	540.7	722.4	760.5	783.9	755.7	858.7	924.2	907.3	949.7	 1028	 1088	 1192	 1230	 1281	 1030	815.9	658.1	611.9	589.8	596.8	644.2	637.1	702.3	710.3	747.9	779.7	781.0	797.2	814.2	758.8	762.7	692.2	624.5	527.2	462.6	442.7	332.6	231.3	177.3	139.2	109.5	89.95	77.27	67.81	93.26	624.6	 8544	9999.9
455.0	316.0	370.6	552.8	552.3	523.8	701.3	736.6	707.9	829.2	847.6	850.3	872.3	 1025	 1084	 1130	 1147	 1189	981.1	780.0	620.1	581.9	566.5	555.1	603.4	601.3	648.7	666.5	688.3	707.5	752.4	744.2	756.9	732.6	729.6	658.9	619.6	510.1	429.4	379.3	354.8	253.1	186.9	144.3	119.0	96.52	82.29	72.82	59.17	90.79	582.8	 8521
460.0	267.4	396.4	474.9	465.4	530.7	683.0	679.5	822.4	724.7	762.0	823.7	820.1	915.2	 1005	 1121	 1168	 1091	982.3	716.6	574.2	524.8	515.7	541.6	538.3	581.4	595.6	628.2	648.8	675.0	700.2	689.8	691.8	721.6	671.8	635.1	565.2	490.8	426.0	348.8	304.5	291.6	209.0	156.2	132.8	105.2	92.33	76.74	66.08	54.74	84.31	575.3
465.0	337.4	380.2	393.2	419.0	506.8	602.1	621.2	685.6	651.4	770.2	862.2	820.3	830.9	984.7	985.7	 1065	989.6	912.6	668.5	538.6	507.7	502.0	491.6	507.6	521.4	564.4	584.4	581.7	607.4	642.2	637.2	642.4	635.1	639.4	603.2	545.1	472.7	396.8	326.0	285.2	277.9	234.2	174.0	139.8	118.1	104.1	81.82	68.32	55.02	50.89	78.60
470.0	263.4	400.1	440.0	410.4	405.4	610.0	523.4	558.9	625.8	662.4	724.6	776.9	758.1	847.3	937.7	993.0	936.2	785.3	639.3	485.8	473.1	458.0	428.5	450.8	486.2	496.6	530.8	552.4	571.5	580.1	578.5	596.2	586.7	574.2	559.8	514.5	449.3	384.6	325.5	270.8	237.7	242.2	204.7	140.9	123.6	106.0	88.59	72.00	58.42	50.22	46.25
475.0	257.0	275.3	293.6	401.7	461.5	573.1	540.8	590.3	629.8	623.5	664.6	637.7	726.3	793.3	833.4	854.0	829.4	723.5	556.9	448.9	408.1	436.1	423.7	438.4	421.9	467.0	464.5	489.5	501.7	529.9	537.8	542.3	532.8	535.3	515.7	465.9	410.5	355.9	314.5	257.7	221.5	208.6	204.2	158.4	131.4	104.8	84.12	71.89	66.02	48.94	44.73
480.0	170.7	267.0	362.1	334.9	418.0	367.3	448.1	506.3	554.5	587.6	603.7	641.3	656.8	654.6	760.7	792.5	734.9	646.9	509.4	435.5	378.0	357.3	367.3	386.5	404.0	422.7	428.9	428.7	466.9	483.2	488.1	493.4	484.3	493.2	473.6	420.1	371.5	323.1	284.7	243.7	212.6	194.8	187.2	183.7	134.1	114.8	89.40	73.20	67.67	54.07	46.85
485.0	179.6	235.0	235.5	260.6	374.2	425.7	436.8	490.5	436.5	521.7	570.7	604.4	618.3	661.6	674.3	740.1	743.3	577.4	485.5	370.7	376.1	354.4	370.9	360.7	370.1	372.6	389.5	401.2	423.9	432.1	437.7	460.6	465.8	461.2	427.9	416.1	350.4	326.6	271.5	232.1	197.8	189.2	172.0	173.7	156.0	130.7	84.37	79.66	72.68	58.55	52.31
490.0	128.5	215.6	318.4	252.0	289.9	405.5	440.1	416.8	500.5	508.6	537.7	572.8	593.4	615.7	638.5	692.3	653.6	584.6	410.4	347.7	346.1	309.1	332.1	343.3	349.1	342.6	361.7	360.0	381.3	415.5	395.6	410.6	412.9	415.7	408.6	374.5	336.9	300.5	252.4	225.2	195.5	186.4	152.1	149.6	156.0	147.6	100.7	81.80	74.49	62.21	52.23
495.0	157.6	228.0	197.5	308.6	289.7	353.6	320.3	419.7	428.6	449.0	513.7	494.2	528.9	603.1	608.9	601.7	557.8	492.5	385.2	340.7	323.8	289.3	317.1	300.9	320.1	307.9	328.4	333.6	363.0	358.4	351.6	377.0	381.4	378.1	369.4	347.7	317.8	275.3	235.5	214.5	182.0	166.6	147.8	134.2	137.6	160.0	104.9	85.02	73.38	61.62	53.20
500.0	240.5	159.1	199.9	233.7	257.6	302.3	359.6	354.7	373.4	384.3	403.0	449.2	533.6	507.6	533.6	509.7	510.7	466.8	371.4	301.3	284.7	265.9	286.5	275.6	286.2	279.1	300.1	316.8	316.3	321.6	336.4	335.1	333.8	328.0	333.8	306.6	282.8	253.4	225.1	197.9	173.5	154.1	144.7	127.2	116.7	137.2	124.9	88.86	69.65	59.90	53.73
505.0	142.8	157.2	241.0	201.6	305.2	292.7	243.8	300.3	361.7	327.4	405.9	399.6	434.6	452.2	484.2	467.9	489.9	405.8	347.8	292.5	261.3	271.0	238.5	236.8	256.9	259.4	273.3	271.3	291.0	276.5	294.2	307.8	299.2	311.2	299.6	278.8	262.6	221.4	203.9	181.6	163.1	149.6	135.8	124.1	110.1	118.1	112.5	93.93	78.37	61.33	55.20
510.0	130.9	115.0	197.6	224.5	222.4	268.2	266.6	294.3	278.4	307.3	358.0	371.4	393.0	440.2	453.0	450.3	432.9	363.3	304.1	274.8	239.6	227.0	216.6	227.2	214.2	219.6	232.1	263.3	250.8	260.2	264.4	268.8	276.4	267.5	275.9	250.2	227.4	204.0	186.7	164.4	143.8	137.5	121.9	112.7	101.7	99.23	93.58	106.3	79.00	62.20	53.75
515.0	82.90	142.6	144.0	141.2	177.0	261.0	246.6	254.8	248.7	316.2	305.6	327.9	353.7	411.1	416.9	395.1	385.5	330.3	272.5	235.1	212.9	201.3	207.7	211.3	199.3	198.3	217.6	223.1	233.5	218.4	233.9	237.8	233.8	253.7	239.5	223.1	208.8	192.1	162.2	155.5	138.9	120.2	109.7	109.5	95.55	99.93	85.81	90.51	92.73	72.59	52.26
520.0	178.5	157.4	132.7	112.7	172.7	187.6	210.3	218.5	226.9	271.5	261.4	328.4	318.5	323.6	377.2	378.3	345.6	299.6	258.3	211.3	202.0	188.7	192.1	175.4	170.2	187.8	174.7	185.8	193.1	201.5	205.7	210.7	217.0	219.9	209.9	202.2	189.5	174.7	151.8	130.6	128.9	114.9	110.4	91.83	90.98	86.03	77.07	73.65	77.50	81.33	55.08
525.0	139.4	129.9	105.1	116.1	216.5	177.0	165.9	192.8	194.3	273.4	236.5	263.6	285.3	286.7	312.0	310.9	306.6	275.2	219.8	195.6	177.7	187.1	170.8	169.5	160.8	171.6	165.2	159.1	180.9	172.2	178.7	193.9	200.0	181.9	183.6	176.1	173.6	146.7	130.2	124.7	113.4	102.4	94.86	86.16	79.24	86.29	68.62	67.11	64.24	71.54	62.85
530.0	102.3	89.16	113.2	120.0	135.3	151.9	207.0	174.8	184.1	206.9	211.2	218.2	233.3	288.1	287.5	282.6	256.8	272.5	218.2	188.2	159.2	161.2	157.4	147.7	148.4	147.9	150.1	157.3	152.4	153.1	156.6	160.1	166.0	167.2	159.7	148.1	146.3	127.7	121.4	108.1	97.32	91.99	84.47	80.88	76.64	77.33	67.68	61.02	52.96	59.73	66.07
535.0	96.41	147.5	134.7	141.7	123.9	149.6	113.8	179.9	155.8	193.1	178.7	201.6	205.3	235.0	268.3	231.8	235.7	226.2	189.5	171.5	151.4	137.7	133.0	142.6	139.2	126.3	135.5	133.0	138.1	134.0	134.5	145.9	136.3	146.8	146.9	136.6	126.0	118.7	105.4	97.39	90.70	84.74	77.50	72.96	78.81	67.54	59.42	55.45	52.91	51.90	55.67
540.0	40.62	118.3	134.1	122.4	174.7	139.8	131.4	133.3	139.8	149.1	146.7	178.9	192.0	202.9	286.3	278.3	211.4	189.1	157.0	149.4	131.1	120.9	121.2	117.4	121.1	120.4	118.5	120.8	122.6	120.4	121.9	125.1	124.5	124.1	124.9	117.0	116.3	106.1	98.00	94.18	79.99	74.90	72.92	67.22	67.88	61.52	54.57	54.41	48.16	45.83	43.05
545.0	56.10	111.2	69.85	74.60	141.6	138.3	137.3	119.6	119.2	147.8	128.9	162.7	163.1	191.4	310.5	428.3	221.0	183.3	152.9	125.4	120.0	106.6	111.2	108.2	107.0	111.8	110.4	102.3	102.9	109.2	102.8	113.0	115.9	109.6	108.9	104.0	93.45	93.72	87.52	82.49	70.71	66.04	68.73	62.73	62.91	57.28	48.27	46.84	43.19	42.64	39.12
550.0	29.99	72.03	74.39	102.2	109.1	102.6	100.0	117.9	97.68	133.1	130.3	170.8	159.0	168.9	219.4	804.5	343.9	160.7	132.0	132.9	115.6	101.3	102.0	98.14	92.55	91.62	101.3	88.63	100.8	96.11	102.1	106.7	96.12	99.33	103.1	98.23	89.66	83.33	76.19	72.22	66.77	64.46	61.45	56.49	51.07	50.68	44.57	42.24	40.05	37.58	34.08
