Sample:	'SLABO1-5-5-320
File name:	1P4.FD3
Run Date:	17:00:07, 08/15/2022
Operator:	Administrator
Comment:	'

Instrument
Model:	F-7000 FL Spectrophotometer
Serial Number:	2354-007
ROM Version:	5J14000 06

Instrument Parameters
Measurement type:	3-D Scan
Data mode:	Fluorescence
EX  Start WL:	200.0 nm
EX  End WL:	450.0 nm
EX Sampling Interval:	5.0 nm
EM  Start WL:	280.0 nm
EM  End WL:	550.0 nm
EM Sampling Interval:	5.0 nm
Scan speed:	12000 nm/min
EX Slit:	5.0 nm
EM Slit:	5.0 nm
PMT Voltage:	700 V
Response:	Auto 
Corrected spectra:	Off
Shutter control:	On
Contour interval:	25.000

Peak integration
Integration method:	Rectangular
Sensitivity:	1
Threshold:	1.000

Peaks
No.	ApexEX/EM(nm)	Height(Data)
1	205.0/385.0	 1344
2	205.0/450.0	923.7
3	205.0/495.0	578.0
4	210.0/370.0	 1425
5	210.0/415.0	 1170
6	210.0/465.0	979.3
7	210.0/505.0	468.7
8	210.0/530.0	343.1
9	215.0/320.0	 1092
10	215.0/330.0	 1143
11	215.0/405.0	 1285
12	215.0/450.0	919.6
13	215.0/515.0	462.0
14	220.0/310.0	808.3
15	220.0/415.0	 1090
16	220.0/545.0	241.1
17	225.0/350.0	811.8
18	225.0/410.0	 1092
19	225.0/465.0	905.2
20	225.0/495.0	528.7
21	225.0/540.0	255.7
22	230.0/375.0	921.2
23	230.0/395.0	 1084
24	230.0/435.0	999.5
25	235.0/425.0	 1011
26	240.0/420.0	 1081
27	240.0/435.0	 1021
28	240.0/505.0	459.7
29	245.0/350.0	565.3
30	245.0/440.0	992.0
31	250.0/340.0	524.5
32	250.0/395.0	991.9
33	250.0/450.0	956.8
34	255.0/330.0	458.3
35	270.0/430.0	 1202
36	275.0/305.0	826.9
37	275.0/415.0	 1231
38	275.0/440.0	 1210
39	280.0/310.0	968.3
40	280.0/345.0	698.8
41	285.0/315.0	852.5
42	285.0/350.0	701.5
43	285.0/415.0	 1222
44	285.0/425.0	 1224
45	290.0/430.0	 1199
46	300.0/335.0	609.3
47	305.0/340.0	611.6
48	310.0/345.0	637.2
49	320.0/360.0	816.3
50	325.0/420.0	 1559
51	335.0/420.0	 1601
52	420.0/315.0	24.13
53	430.0/290.0	12.80
54	440.0/310.0	16.93

Data Points
	200.0	205.0	210.0	215.0	220.0	225.0	230.0	235.0	240.0	245.0	250.0	255.0	260.0	265.0	270.0	275.0	280.0	285.0	290.0	295.0	300.0	305.0	310.0	315.0	320.0	325.0	330.0	335.0	340.0	345.0	350.0	355.0	360.0	365.0	370.0	375.0	380.0	385.0	390.0	395.0	400.0	405.0	410.0	415.0	420.0	425.0	430.0	435.0	440.0	445.0	450.0
280.0	-3.631	18.95	30.47	28.61	20.12	20.57	18.64	10.86	34.85	35.08	58.88	48.00	31.85	19.46	21.20	 4533	9999.9	9999.9	342.5	71.49	59.90	67.05	53.19	49.20	39.56	35.85	43.24	37.08	34.02	36.10	28.78	29.67	31.02	27.49	25.49	26.21	25.34	20.59	20.16	18.59	15.75	13.98	12.08	11.42	12.58	10.51	7.926	7.442	7.886	6.622	7.323
285.0	63.49	145.3	160.3	149.2	129.7	54.40	77.45	34.47	69.29	90.98	152.5	119.6	135.9	97.48	58.07	356.2	9999.9	9999.9	9999.9	 2634	98.82	93.89	86.43	70.44	61.02	47.20	46.83	43.98	36.25	35.86	33.39	35.84	32.33	36.48	28.77	23.19	24.91	22.69	23.34	21.88	18.64	16.67	12.91	11.46	11.10	10.77	9.451	8.247	7.461	8.049	7.100
290.0	216.9	324.5	253.9	285.8	273.4	220.0	148.7	110.5	121.2	164.4	194.7	184.1	186.1	217.4	177.3	190.3	804.7	9999.9	9999.9	9999.9	 3570	148.6	124.2	106.4	95.37	65.21	50.31	50.96	46.15	42.30	36.23	36.95	32.36	35.57	33.85	32.19	29.22	25.87	21.96	19.98	17.91	16.43	14.26	14.27	13.42	11.71	12.80	8.502	9.621	8.513	7.195
295.0	602.6	352.7	332.1	379.6	374.4	336.5	257.5	163.1	145.7	189.2	242.4	248.1	217.2	267.1	379.4	350.3	347.1	900.4	9999.9	9999.9	9999.9	 4838	193.1	156.4	124.3	96.72	72.60	61.62	53.73	47.99	42.29	45.74	40.23	41.21	33.93	36.73	30.34	27.72	24.35	19.57	20.56	18.17	17.95	16.25	12.29	11.11	10.94	11.84	10.39	12.37	10.52
300.0	635.6	573.8	603.2	612.8	679.3	547.8	371.2	322.0	216.9	229.2	280.2	274.6	246.6	297.8	476.1	618.7	476.6	406.0	937.4	9999.9	9999.9	9999.9	 5297	231.0	191.9	147.1	114.5	92.90	71.75	62.74	46.31	52.03	46.19	44.15	43.24	36.81	33.46	33.83	28.11	23.90	21.97	21.52	18.33	18.18	16.19	14.59	13.60	13.19	11.89	11.56	9.250
305.0	810.8	909.0	717.3	629.1	564.9	587.7	479.1	312.9	289.8	259.1	280.1	277.9	280.6	392.3	569.0	826.9	811.1	467.2	340.8	941.3	9999.9	9999.9	9999.9	 6410	278.7	211.0	179.9	142.7	101.9	82.92	64.90	59.41	55.95	54.51	47.56	43.39	36.27	33.13	30.41	28.52	24.78	22.03	20.93	19.31	17.60	15.19	14.52	12.87	12.12	13.74	11.55
310.0	972.6	830.9	824.0	716.6	808.3	701.5	678.5	418.2	392.8	329.0	307.9	312.2	377.4	428.6	574.6	787.6	968.3	678.5	353.3	300.4	952.0	9999.9	9999.9	9999.9	 6816	329.9	264.4	201.5	144.1	101.3	87.66	74.95	67.12	61.85	52.53	46.47	41.92	35.76	32.07	32.88	26.55	25.53	20.85	22.21	20.58	20.30	19.20	13.87	16.93	15.83	12.76
315.0	 1073	 1030	849.9	826.1	791.3	712.6	725.6	502.0	374.6	366.6	370.3	317.1	361.4	460.7	580.5	733.2	831.0	852.5	461.9	285.0	301.6	 1030	9999.9	9999.9	9999.9	 6235	373.2	287.1	214.8	162.3	112.3	89.60	74.05	69.28	57.17	50.70	45.80	38.25	39.37	36.23	30.51	29.27	25.52	22.10	24.13	20.96	16.85	17.10	15.66	15.24	15.87
320.0	 1232	 1064	826.8	 1092	806.3	750.4	698.5	501.6	397.8	426.4	371.9	401.8	410.5	469.7	593.1	686.8	790.6	784.6	708.9	366.8	276.6	311.5	 1080	9999.9	9999.9	9999.9	 6527	411.9	310.0	239.6	178.4	116.5	101.9	86.41	73.26	61.92	48.48	44.69	41.98	36.69	33.79	31.25	25.14	26.52	23.39	22.79	17.30	18.51	17.18	16.00	13.80
325.0	 1251	 1165	 1107	 1014	730.9	884.0	618.4	622.2	483.6	435.5	397.3	399.7	419.6	468.7	573.9	694.6	737.3	667.2	629.7	606.6	327.1	266.7	340.5	 1092	9999.9	9999.9	9999.9	 7494	450.1	334.3	265.0	203.5	136.5	102.6	80.94	70.63	58.25	46.21	45.71	38.45	35.92	34.04	29.99	26.61	21.39	21.81	21.58	20.04	17.57	16.86	13.69
330.0	 1226	 1093	961.0	 1143	846.7	939.9	745.5	596.8	475.2	498.4	432.5	458.3	421.0	481.9	542.1	675.9	723.4	620.5	515.0	568.3	540.6	304.8	286.2	352.6	 1097	9999.9	9999.9	9999.9	 7582	510.4	369.4	270.7	204.0	143.1	110.6	90.08	72.16	60.51	47.83	38.48	38.94	34.93	33.30	25.54	28.52	21.45	19.68	18.78	20.65	19.87	16.20
335.0	 1269	 1131	 1037	 1021	993.2	885.5	832.5	593.8	560.1	466.0	448.8	441.1	447.2	504.4	542.6	649.4	663.1	634.8	539.9	465.2	609.3	484.4	313.1	305.9	375.9	 1115	9999.9	9999.9	9999.9	 8220	534.3	389.1	291.2	221.4	156.2	110.0	89.21	70.43	59.19	46.39	36.38	34.87	33.29	32.11	27.32	26.10	23.19	20.56	20.02	19.88	18.80
340.0	 1305	 1156	983.8	918.3	984.2	925.6	801.1	695.8	506.3	502.7	524.5	437.7	466.4	472.4	547.1	618.9	675.5	617.8	526.3	447.5	472.2	611.6	451.5	320.9	327.6	394.8	 1142	9999.9	9999.9	9999.9	 9479	581.8	418.9	304.8	244.7	157.6	114.0	89.06	70.56	55.09	46.25	41.76	33.73	31.11	28.42	26.26	27.06	22.21	20.89	21.12	18.25
345.0	 1277	 1231	 1062	 1058	916.5	780.0	769.0	660.2	533.1	544.8	483.2	490.4	454.1	462.4	558.6	611.7	698.8	665.1	585.4	486.3	448.6	505.8	637.2	437.9	364.6	365.2	417.5	 1146	9999.9	9999.9	9999.9	9999.9	612.1	440.4	315.0	231.6	162.9	111.7	77.19	63.66	54.28	42.68	37.49	33.98	28.97	30.22	29.25	26.28	22.52	20.23	17.71
350.0	 1265	 1191	 1131	883.4	760.8	811.8	723.6	671.8	516.5	565.3	497.1	467.9	493.4	505.3	542.3	649.8	644.5	701.5	591.9	558.6	503.1	495.7	567.9	651.0	463.9	394.4	401.8	434.9	 1159	9999.9	9999.9	9999.9	9999.9	632.0	456.3	331.4	232.8	153.4	100.5	75.54	65.72	44.80	40.33	37.60	31.53	30.10	26.19	24.98	21.74	22.45	20.13
355.0	 1392	 1254	813.7	 1073	887.1	790.7	758.6	681.7	567.4	498.6	604.2	526.9	506.8	512.7	586.8	644.3	695.4	667.0	659.3	600.9	598.6	522.1	554.2	688.4	695.9	523.3	456.5	437.8	491.3	 1193	9999.9	9999.9	9999.9	9999.9	661.0	448.1	300.0	228.6	156.5	105.8	78.26	67.07	43.01	39.88	33.05	32.95	28.59	26.64	22.33	21.19	21.33
360.0	 1689	 1477	 1305	 1101	983.4	774.5	718.4	687.8	624.0	597.4	609.8	558.0	539.0	610.0	588.9	708.4	696.4	731.4	698.6	663.5	663.5	620.7	642.7	645.5	816.3	735.6	568.1	500.7	482.0	502.9	 1204	9999.9	9999.9	9999.9	9999.9	642.6	447.8	296.7	227.0	144.4	100.3	77.91	58.06	45.64	40.09	34.21	31.62	32.43	25.64	23.42	22.60
365.0	 1404	 1212	 1163	 1109	 1048	916.1	947.8	801.5	637.2	660.3	556.7	610.5	597.6	584.4	631.6	655.3	747.0	778.9	775.3	746.9	703.1	716.3	714.5	749.9	769.9	929.4	754.0	620.7	553.9	503.8	513.6	 1189	9999.9	9999.9	9999.9	9999.9	632.6	439.5	297.4	216.0	148.4	95.42	70.94	56.48	48.39	37.00	30.43	30.86	24.27	24.59	20.47
370.0	 1348	 1350	 1425	 1167	 1070	836.5	871.4	721.2	664.2	676.5	703.7	609.3	644.4	628.1	656.8	738.8	827.9	838.3	785.8	793.3	809.8	808.7	825.8	827.1	854.5	900.8	 1007	800.0	658.5	579.5	518.2	515.0	 1191	9999.9	9999.9	9999.9	9999.9	604.9	420.9	284.0	198.2	136.3	94.83	70.25	52.71	44.43	36.92	29.47	28.69	26.30	25.50
375.0	 1562	 1500	 1090	 1162	934.1	896.5	921.2	827.9	728.9	735.6	725.5	680.6	669.5	652.9	723.3	779.8	822.3	881.6	859.6	866.6	865.0	887.8	967.0	961.9	991.3	964.3	989.6	 1038	805.7	671.9	589.1	504.3	493.5	 1201	9999.9	9999.9	9999.9	9999.9	581.8	408.4	261.2	187.7	133.8	86.59	72.45	52.79	42.56	36.86	29.79	31.50	24.01
380.0	 1368	 1306	 1270	 1039	 1009	 1026	824.1	808.5	831.5	818.1	736.4	723.0	738.0	746.2	772.9	829.0	880.0	891.9	926.3	925.8	956.1	989.2	998.7	 1074	 1089	 1079	 1054	 1104	 1014	798.2	688.9	581.3	500.0	504.4	 1192	9999.9	9999.9	9999.9	9999.9	553.4	371.9	245.8	175.9	125.2	85.59	62.86	53.56	41.71	31.50	30.64	25.89
385.0	 1288	 1344	 1249	 1140	 1083	 1056	912.7	793.8	831.9	783.3	820.5	752.2	735.5	787.6	874.6	902.8	928.4	967.3	982.7	 1002	 1027	 1064	 1115	 1148	 1173	 1182	 1169	 1125	 1172	 1047	784.4	672.8	557.2	506.7	514.7	 1164	9999.9	9999.9	9999.9	9999.9	531.9	359.6	233.0	175.2	121.9	79.94	66.43	49.43	37.27	32.87	26.45
390.0	 1273	 1326	 1197	 1174	 1174	 1009	893.7	829.6	926.6	897.8	841.4	792.0	865.5	837.9	862.6	890.0	 1027	 1065	 1063	 1040	 1096	 1152	 1246	 1273	 1264	 1270	 1241	 1209	 1159	 1180	974.5	793.0	668.0	569.2	500.9	496.8	 1146	9999.9	9999.9	9999.9	9999.9	488.8	327.5	222.1	162.4	111.9	76.31	55.79	46.71	37.58	28.38
395.0	 1506	 1349	 1084	 1152	 1108	 1026	 1084	 1013	943.8	873.0	991.9	861.1	887.0	946.5	946.0	978.8	 1046	 1091	 1114	 1120	 1163	 1213	 1285	 1312	 1357	 1396	 1377	 1302	 1265	 1186	 1193	955.9	783.7	673.3	565.9	485.2	476.0	 1105	9999.9	9999.9	9999.9	9999.9	474.2	316.3	215.4	165.4	102.5	74.33	56.44	47.84	32.79
400.0	 1193	 1219	 1052	 1232	 1155	931.8	944.1	963.4	990.3	949.0	939.8	940.8	900.5	931.2	984.2	 1045	 1066	 1128	 1140	 1148	 1198	 1269	 1359	 1373	 1423	 1433	 1453	 1409	 1341	 1249	 1232	 1140	927.3	779.6	659.5	555.2	460.2	453.8	 1096	9999.9	9999.9	9999.9	9999.9	444.0	292.6	200.0	139.9	102.2	70.23	54.33	44.10
405.0	 1275	 1020	 1099	 1285	 1124	 1040	881.8	997.2	 1010	961.6	985.0	933.9	989.4	979.6	 1054	 1098	 1148	 1129	 1155	 1225	 1209	 1306	 1353	 1465	 1468	 1484	 1511	 1488	 1401	 1324	 1207	 1215	 1102	873.6	739.7	599.6	511.0	429.4	418.9	 1063	9999.9	9999.9	9999.9	9999.9	396.3	277.0	186.4	134.7	95.65	65.06	50.69
410.0	 1130	 1100	 1113	 1021	 1035	 1092	 1032	979.2	 1051	941.5	976.4	999.8	 1025	 1038	 1063	 1148	 1151	 1181	 1185	 1214	 1257	 1306	 1408	 1429	 1511	 1545	 1545	 1505	 1512	 1395	 1326	 1240	 1246	 1043	853.3	731.6	574.1	468.0	385.0	412.0	 1025	9999.9	9999.9	9999.9	 9840	369.6	252.9	175.7	124.5	93.41	61.87
415.0	986.5	 1035	 1170	955.9	 1090	 1036	 1015	994.5	 1054	 1021	 1002	958.8	 1024	 1051	 1139	 1231	 1167	 1222	 1204	 1223	 1255	 1309	 1363	 1486	 1524	 1554	 1557	 1575	 1520	 1469	 1377	 1295	 1249	 1209	 1004	804.7	664.9	513.8	433.7	356.3	360.7	991.1	9999.9	9999.9	9999.9	9999.9	354.3	241.9	155.5	122.5	83.42
420.0	907.4	980.3	 1085	920.1	 1055	947.3	939.9	914.9	 1081	 1050	 1059	974.1	997.5	 1084	 1179	 1230	 1204	 1165	 1218	 1209	 1225	 1331	 1365	 1468	 1500	 1559	 1522	 1601	 1525	 1512	 1434	 1343	 1231	 1201	 1153	898.3	728.3	591.8	470.8	372.9	314.4	336.0	953.8	9999.9	9999.9	9999.9	 9009	334.8	230.2	148.4	107.5
425.0	 1013	968.9	966.1	 1012	 1048	 1010	869.7	 1011	927.5	 1002	 1048	988.3	 1007	 1139	 1161	 1206	 1206	 1224	 1166	 1161	 1226	 1321	 1355	 1407	 1471	 1539	 1562	 1572	 1532	 1506	 1396	 1374	 1301	 1219	 1168	 1020	793.4	626.2	512.1	407.8	326.5	291.2	307.8	941.8	9999.9	9999.9	9999.9	 7702	315.9	211.3	142.2
430.0	 1110	 1058	933.1	 1109	 1001	872.6	989.5	951.1	 1002	 1020	 1045	 1007	968.1	 1080	 1202	 1145	 1194	 1166	 1199	 1130	 1190	 1281	 1325	 1388	 1459	 1525	 1509	 1538	 1528	 1500	 1453	 1379	 1326	 1195	 1144	 1068	880.8	690.5	557.2	450.2	357.6	300.1	258.1	287.6	908.3	9999.9	9999.9	9999.9	 7048	295.1	189.3
435.0	 1064	876.1	856.3	993.1	916.3	980.4	999.5	914.4	 1021	971.5	981.4	 1007	 1108	 1096	 1202	 1186	 1183	 1158	 1181	 1156	 1152	 1232	 1280	 1333	 1430	 1458	 1524	 1532	 1532	 1514	 1429	 1379	 1333	 1249	 1145	 1042	957.2	771.8	596.0	477.1	389.5	317.5	268.1	237.2	277.3	912.2	9999.9	9999.9	9999.9	 6905	273.5
440.0	950.3	879.5	820.2	901.7	748.4	936.2	804.4	952.4	953.5	992.0	939.4	957.7	997.5	 1056	 1154	 1210	 1193	 1186	 1156	 1110	 1159	 1182	 1256	 1329	 1413	 1439	 1478	 1490	 1529	 1467	 1464	 1396	 1325	 1255	 1174	 1032	950.4	830.6	653.0	537.3	422.6	352.5	291.0	239.2	224.1	268.5	899.9	9999.9	9999.9	9999.9	 6077
445.0	988.3	919.3	955.7	855.6	848.1	875.0	884.2	924.1	947.0	952.1	907.6	930.8	941.5	 1039	 1105	 1187	 1159	 1179	 1136	 1084	 1086	 1131	 1210	 1251	 1305	 1354	 1383	 1459	 1434	 1421	 1376	 1350	 1304	 1265	 1150	 1049	928.8	849.7	733.3	552.0	471.1	381.0	314.3	265.0	226.7	205.4	256.8	898.6	9999.9	9999.9	9999.9
450.0	752.6	923.7	851.0	919.6	809.7	894.7	932.6	917.9	892.8	891.8	956.8	922.4	 1021	 1071	 1094	 1125	 1123	 1088	 1074	 1058	 1064	 1079	 1162	 1193	 1259	 1310	 1307	 1342	 1391	 1376	 1345	 1317	 1276	 1214	 1141	 1016	912.3	804.5	743.7	641.3	496.0	406.8	333.5	292.1	246.5	221.6	194.8	250.1	886.2	9999.9	9999.9
455.0	984.6	793.7	749.5	787.2	726.0	852.1	734.7	780.5	834.8	896.2	913.1	902.5	890.8	 1014	 1080	 1112	 1128	 1096	 1049	991.3	984.2	992.4	 1048	 1128	 1177	 1262	 1258	 1253	 1270	 1301	 1270	 1238	 1214	 1158	 1123	 1018	892.4	790.8	701.1	641.4	534.3	432.9	352.3	304.1	261.9	233.8	199.9	184.0	234.2	872.3	9999.9
460.0	859.1	853.5	711.5	828.4	760.9	743.9	749.0	783.2	757.2	856.5	792.4	854.1	869.6	903.8	 1006	 1081	 1043	 1011	978.9	916.0	915.6	980.0	 1021	 1038	 1106	 1180	 1154	 1185	 1165	 1230	 1205	 1171	 1156	 1134	 1069	993.6	878.7	782.6	672.5	628.6	569.9	459.8	379.2	319.7	266.0	233.1	209.3	191.9	177.0	231.1	851.9
465.0	824.6	847.7	979.3	725.7	735.4	905.2	677.4	805.1	716.9	788.5	808.7	839.7	876.9	876.9	993.2	999.6	 1007	965.3	936.2	855.1	891.9	912.8	946.5	975.8	 1028	 1052	 1088	 1108	 1140	 1126	 1130	 1097	 1079	 1054	 1002	954.1	856.4	751.9	659.1	587.0	550.2	494.8	383.3	336.2	280.2	249.5	226.7	194.0	179.3	161.0	218.4
470.0	883.0	726.4	668.7	686.1	683.8	779.5	748.9	654.9	688.1	718.1	715.8	829.5	781.9	790.9	889.4	894.2	955.0	944.5	828.9	840.5	819.3	821.6	883.9	924.7	955.8	 1004	980.1	 1018	 1057	 1008	 1033	 1010	 1021	997.8	951.2	884.3	802.8	725.5	634.8	577.5	506.1	495.1	417.0	346.0	302.3	265.1	230.6	204.7	179.6	163.6	150.3
475.0	822.5	661.5	689.9	657.0	619.8	597.3	553.5	600.2	615.8	705.3	668.8	755.4	745.6	824.9	821.7	814.8	869.7	834.8	781.8	791.4	754.7	758.1	775.5	822.1	852.4	883.8	916.0	921.3	932.0	948.8	939.4	918.6	927.4	944.8	909.3	837.9	760.3	679.6	611.0	539.6	482.3	462.2	439.6	343.4	298.9	265.9	230.8	196.6	174.8	154.2	132.2
480.0	657.1	599.5	571.5	640.1	574.8	588.8	574.8	566.6	564.5	636.5	668.4	700.8	692.0	726.1	789.1	777.8	828.1	789.7	749.0	734.3	719.8	707.4	731.5	758.1	787.7	808.7	831.8	857.6	873.7	854.5	864.3	867.8	863.9	857.9	843.5	798.2	730.2	656.9	593.9	526.6	466.4	420.7	402.9	377.5	324.4	261.6	226.9	200.5	179.0	159.1	130.5
485.0	552.5	598.2	517.8	484.4	447.5	456.5	514.9	539.1	566.7	582.1	588.7	652.2	680.5	648.9	700.6	738.3	756.3	741.7	702.1	674.4	647.5	685.3	687.2	715.0	723.8	745.2	778.5	800.7	818.6	809.1	816.9	771.5	791.9	768.7	776.3	723.2	705.6	626.1	581.0	505.6	450.9	408.6	369.5	370.6	328.7	272.9	240.1	207.9	182.2	166.4	138.4
490.0	578.4	532.6	459.8	454.2	450.3	439.9	451.8	417.2	522.9	532.4	570.8	560.8	675.9	631.7	680.2	721.0	704.3	703.5	620.5	632.3	610.0	618.0	639.3	652.1	669.3	701.8	729.3	740.5	740.9	743.1	751.1	721.9	730.8	740.9	736.2	710.5	642.0	573.4	533.4	485.3	452.4	396.0	355.8	338.3	326.2	284.3	234.7	216.4	188.9	169.2	141.4
495.0	409.7	578.0	446.4	497.4	309.7	528.7	444.8	444.8	464.1	512.2	549.4	506.2	591.3	598.1	649.3	645.8	697.6	632.8	634.1	613.6	595.4	584.2	610.5	622.6	645.5	635.3	666.3	669.9	692.9	696.8	686.6	693.5	694.0	683.2	678.4	643.2	604.6	553.2	508.7	466.5	427.2	389.7	343.8	310.8	302.5	302.7	243.7	209.5	189.4	172.2	144.3
500.0	379.5	439.4	409.7	434.7	423.2	433.4	418.9	395.5	408.7	512.5	513.2	505.4	539.3	539.3	613.4	596.5	644.0	586.4	605.5	542.7	533.3	552.1	574.2	563.6	580.6	586.9	582.5	617.5	636.2	623.8	635.5	617.9	652.7	623.1	627.8	604.0	565.2	524.8	472.6	439.6	391.3	362.5	333.4	306.6	279.2	272.4	252.2	208.4	187.1	164.1	144.6
505.0	400.4	464.3	468.7	319.0	337.0	372.2	379.7	350.8	459.7	405.7	413.5	479.2	450.7	510.7	515.0	543.8	564.2	551.9	530.1	511.0	504.2	500.1	514.4	518.2	528.6	522.9	568.2	547.7	576.4	569.1	572.2	565.4	594.5	568.9	575.9	540.6	516.3	486.1	445.3	396.2	370.5	345.7	307.1	299.0	263.1	250.3	244.1	215.0	184.4	164.1	149.0
510.0	334.2	297.5	402.4	293.0	349.6	385.9	335.2	367.5	351.8	375.7	388.5	438.4	397.3	504.9	506.6	480.3	515.6	515.3	501.9	472.0	453.6	456.9	448.6	457.7	479.9	490.3	501.2	503.6	506.4	524.4	522.5	522.8	519.3	526.2	533.0	505.2	480.9	437.6	418.0	376.1	345.4	325.8	294.5	281.2	263.9	234.5	220.6	221.2	191.4	158.4	143.5
515.0	464.5	238.1	358.3	462.0	339.0	320.6	270.9	303.9	299.7	371.0	338.7	390.5	394.4	421.5	447.5	471.7	465.6	468.0	434.3	415.4	387.6	428.7	412.6	417.3	425.8	439.7	440.7	455.9	473.1	478.7	461.5	466.4	482.6	474.6	479.6	471.7	423.6	410.0	379.1	350.0	318.3	303.3	269.8	261.1	239.2	217.4	204.0	191.3	184.3	169.6	133.4
520.0	398.1	372.0	301.2	306.7	261.6	299.7	285.2	263.6	291.4	351.1	297.5	359.2	385.9	372.3	425.0	454.9	441.0	398.6	412.2	399.7	377.7	382.1	376.3	378.0	388.2	391.0	397.9	413.2	426.9	425.9	424.4	428.9	428.4	432.6	443.9	410.0	389.5	350.7	357.1	318.8	297.8	271.6	263.8	244.1	215.6	198.7	187.6	187.3	176.9	168.7	140.9
525.0	285.8	256.6	228.5	329.6	328.3	241.2	200.2	276.1	258.9	310.2	298.3	300.9	331.9	344.4	384.3	363.3	403.2	374.4	334.7	344.7	335.5	335.9	340.4	357.3	345.0	356.2	362.1	378.8	384.3	366.3	372.6	371.6	391.9	407.6	382.8	363.3	350.7	337.8	301.6	288.9	267.4	249.7	238.3	222.2	205.8	190.4	176.9	167.3	155.4	155.1	139.0
530.0	303.0	332.4	343.1	297.8	285.3	223.5	190.7	246.3	230.3	233.1	244.1	275.9	287.9	350.1	345.5	377.0	352.4	353.2	337.9	311.4	290.8	315.4	296.0	310.9	319.0	326.0	344.9	320.5	343.1	343.0	351.9	337.2	345.5	357.5	349.4	339.0	310.4	302.6	275.9	257.5	248.5	223.8	216.3	200.2	194.0	176.3	162.1	149.2	135.4	132.6	134.7
535.0	268.5	246.9	332.2	261.9	190.6	229.6	210.2	230.0	214.4	199.3	241.2	264.4	260.0	298.4	331.0	334.6	325.5	299.5	281.1	292.6	287.1	273.4	276.6	281.2	267.3	286.7	282.6	302.5	296.4	308.0	313.8	325.4	316.6	310.5	307.9	300.2	288.3	276.2	238.9	233.3	217.4	216.6	197.8	186.6	172.6	165.9	152.1	144.3	133.6	119.5	118.5
540.0	239.3	219.4	202.7	130.9	208.5	255.7	163.4	182.7	217.2	202.9	200.1	216.6	260.3	257.8	397.0	353.4	300.8	279.4	266.9	241.0	256.6	244.7	248.9	250.4	242.9	250.4	259.2	273.2	274.9	271.0	267.2	276.8	278.6	281.0	270.0	286.0	255.7	239.9	229.6	212.0	197.8	184.2	177.3	167.1	161.1	142.5	136.4	132.6	123.2	112.3	104.8
545.0	251.7	152.7	168.8	183.9	241.1	184.4	179.2	176.5	207.5	173.8	205.1	210.2	213.3	244.1	412.2	643.6	341.5	263.0	257.8	225.5	215.1	217.2	208.2	227.9	245.4	233.9	229.1	238.3	227.7	247.5	258.2	259.6	248.4	251.4	254.4	240.7	229.9	223.8	204.4	189.8	182.7	165.5	157.9	148.5	144.8	135.1	129.6	118.0	116.4	104.3	93.51
550.0	313.2	196.8	189.6	197.7	152.0	197.3	165.9	168.1	189.4	169.4	175.3	168.9	200.5	203.0	308.6	 1345	580.4	228.1	224.6	210.2	213.3	207.8	209.5	221.1	207.4	211.1	207.3	216.7	210.8	227.2	214.5	223.4	231.3	242.5	221.8	220.3	209.8	196.1	181.1	171.5	159.8	156.7	140.0	134.6	130.3	117.4	111.2	108.5	104.9	93.01	85.19
