Sample:	'SLABO1-5-5-320
File name:	1P5.FD3
Run Date:	17:04:25, 08/15/2022
Operator:	Administrator
Comment:	'

Instrument
Model:	F-7000 FL Spectrophotometer
Serial Number:	2354-007
ROM Version:	5J14000 06

Instrument Parameters
Measurement type:	3-D Scan
Data mode:	Fluorescence
EX  Start WL:	200.0 nm
EX  End WL:	450.0 nm
EX Sampling Interval:	5.0 nm
EM  Start WL:	280.0 nm
EM  End WL:	550.0 nm
EM Sampling Interval:	5.0 nm
Scan speed:	12000 nm/min
EX Slit:	5.0 nm
EM Slit:	5.0 nm
PMT Voltage:	700 V
Response:	Auto 
Corrected spectra:	Off
Shutter control:	On
Contour interval:	25.000

Peak integration
Integration method:	Rectangular
Sensitivity:	1
Threshold:	1.000

Peaks
No.	ApexEX/EM(nm)	Height(Data)
1	205.0/370.0	 1551
2	205.0/440.0	989.0
3	205.0/515.0	459.9
4	205.0/540.0	278.5
5	210.0/315.0	 1225
6	210.0/340.0	 1373
7	210.0/480.0	791.9
8	210.0/505.0	535.0
9	215.0/345.0	 1276
10	215.0/375.0	 1329
11	215.0/400.0	 1295
12	215.0/455.0	822.6
13	215.0/510.0	441.4
14	215.0/540.0	280.4
15	220.0/385.0	 1188
16	220.0/465.0	940.7
17	220.0/545.0	175.6
18	225.0/440.0	799.3
19	225.0/480.0	604.4
20	225.0/525.0	350.4
21	225.0/540.0	249.2
22	235.0/410.0	905.9
23	240.0/540.0	218.6
24	245.0/415.0	880.0
25	245.0/435.0	884.9
26	245.0/450.0	834.7
27	250.0/405.0	863.3
28	255.0/495.0	537.7
29	280.0/310.0	913.6
30	280.0/435.0	 1076
31	285.0/315.0	857.5
32	285.0/350.0	628.4
33	285.0/420.0	 1039
34	285.0/445.0	 1048
35	290.0/450.0	 1011
36	295.0/330.0	576.9
37	300.0/335.0	561.6
38	305.0/340.0	578.8
39	310.0/345.0	582.1
40	320.0/360.0	690.8
41	325.0/365.0	763.6
42	325.0/410.0	 1200
43	330.0/370.0	851.3
44	330.0/425.0	 1209
45	335.0/415.0	 1214
46	340.0/385.0	958.4
47	340.0/430.0	 1224
48	360.0/410.0	 1059
49	365.0/415.0	 1077
50	370.0/425.0	 1053
51	420.0/290.0	15.47
52	430.0/340.0	32.28

Data Points
	200.0	205.0	210.0	215.0	220.0	225.0	230.0	235.0	240.0	245.0	250.0	255.0	260.0	265.0	270.0	275.0	280.0	285.0	290.0	295.0	300.0	305.0	310.0	315.0	320.0	325.0	330.0	335.0	340.0	345.0	350.0	355.0	360.0	365.0	370.0	375.0	380.0	385.0	390.0	395.0	400.0	405.0	410.0	415.0	420.0	425.0	430.0	435.0	440.0	445.0	450.0
280.0	64.10	21.73	19.69	3.464	37.12	5.617	8.798	11.96	11.09	14.56	32.51	42.99	37.02	24.55	14.47	 5008	9999.9	9999.9	323.9	61.48	68.77	66.69	60.74	55.16	38.89	42.57	44.99	39.95	37.28	34.11	29.61	34.05	34.03	35.17	29.11	25.09	25.07	24.40	23.13	18.23	17.18	14.24	14.53	10.73	11.99	8.793	9.931	9.819	7.584	7.403	5.921
285.0	217.4	110.0	109.6	33.18	64.09	42.28	41.78	44.86	41.09	75.52	74.78	78.59	86.88	85.89	47.02	375.5	9999.9	9999.9	9999.9	 2641	110.9	101.1	87.33	83.86	62.64	57.02	46.26	46.92	41.27	42.66	37.55	38.94	34.71	38.04	30.88	31.89	26.28	22.86	21.55	22.49	19.16	14.26	14.27	13.51	11.55	8.927	8.952	9.056	9.453	9.371	7.398
290.0	240.7	266.3	247.9	157.1	210.2	192.7	99.20	76.04	80.19	115.9	124.4	121.9	140.9	205.8	171.1	169.3	795.0	9999.9	9999.9	9999.9	 3776	166.4	132.9	118.3	92.10	76.67	64.15	59.44	52.31	46.14	42.27	41.31	40.37	38.25	37.73	37.01	30.04	26.82	22.49	22.88	19.06	18.79	16.35	14.01	15.47	12.43	12.46	10.21	11.06	9.874	8.897
295.0	431.2	390.3	343.1	333.8	416.5	333.1	243.2	181.0	119.9	164.2	169.7	158.8	174.0	227.6	342.0	336.1	351.8	934.9	9999.9	9999.9	9999.9	 5104	195.6	165.4	141.8	117.3	83.55	71.25	58.99	57.54	47.94	39.16	48.84	38.21	39.86	37.14	33.23	30.75	29.35	26.31	22.36	18.24	17.34	18.40	12.92	11.97	12.00	12.51	11.69	11.29	9.257
300.0	756.4	684.3	460.4	536.7	492.6	508.0	376.2	282.7	212.5	196.7	200.8	218.6	209.5	290.5	462.3	623.3	479.9	427.8	954.1	9999.9	9999.9	9999.9	 5882	234.3	202.5	161.7	128.5	96.40	75.31	65.81	60.49	57.06	45.56	47.75	45.43	43.91	38.07	36.28	29.66	26.08	20.48	24.23	20.35	21.03	16.09	18.18	14.88	13.38	11.13	12.04	11.29
305.0	 1176	785.5	569.1	768.4	646.3	691.0	573.1	356.8	264.4	225.1	245.3	270.1	295.6	376.2	540.8	764.9	778.0	472.1	364.3	966.0	9999.9	9999.9	9999.9	 7016	308.3	236.9	194.7	148.4	105.2	86.68	75.44	61.87	62.48	51.99	48.72	47.97	40.33	38.46	33.33	29.78	28.14	24.80	21.81	22.52	18.86	16.15	16.88	14.95	13.97	12.52	12.73
310.0	 1080	 1034	 1012	819.0	810.2	600.4	565.7	436.4	342.9	305.3	268.9	267.3	346.2	400.2	550.6	653.5	913.6	695.1	349.3	312.0	985.5	9999.9	9999.9	9999.9	 7539	361.5	277.5	229.6	164.2	113.2	87.72	74.67	77.71	61.83	56.11	50.06	43.46	40.24	37.55	33.94	33.33	28.38	24.80	22.93	21.74	20.63	17.42	18.04	14.73	14.91	14.71
315.0	 1142	 1224	 1225	 1042	886.1	807.5	642.5	558.8	352.1	319.0	326.5	301.3	373.2	452.5	569.2	700.0	839.4	857.5	498.5	280.8	322.6	 1076	9999.9	9999.9	9999.9	 6895	411.1	316.0	247.6	184.5	125.9	106.0	85.81	80.37	67.92	58.32	54.64	44.78	40.79	33.30	31.70	28.66	26.17	23.98	23.30	18.75	18.95	17.11	17.64	14.34	13.91
320.0	 1044	 1243	 1056	984.3	841.2	831.6	626.4	533.2	411.5	384.9	333.8	371.7	397.5	473.2	590.6	705.3	784.2	741.9	709.5	354.4	267.7	355.3	 1129	9999.9	9999.9	9999.9	 7124	463.7	344.4	270.4	203.4	135.1	108.4	88.01	77.91	62.13	56.06	49.85	48.39	39.10	31.16	30.35	32.57	27.71	24.87	23.04	21.62	18.39	16.55	18.31	17.53
325.0	 1451	 1291	 1177	 1039	939.5	898.1	724.7	579.9	427.3	395.4	393.6	327.7	382.8	446.6	576.9	690.7	721.8	614.6	611.9	572.4	312.0	258.9	339.1	 1140	9999.9	9999.9	9999.9	 8271	505.3	371.4	291.7	230.2	145.9	120.1	95.21	78.75	66.37	58.50	48.82	41.99	36.53	36.39	34.05	29.86	24.95	24.22	23.22	23.04	20.03	18.11	15.44
330.0	 1439	 1337	 1097	 1008	925.1	817.8	763.0	624.1	464.4	437.8	414.4	351.8	399.7	456.7	532.9	602.8	698.6	596.4	488.3	576.9	511.7	275.3	286.7	362.1	 1132	9999.9	9999.9	9999.9	 8477	576.0	401.7	297.5	239.5	163.6	122.2	103.3	77.83	65.04	54.41	45.52	42.62	36.43	33.07	33.96	30.78	29.76	25.12	22.93	21.14	18.34	18.37
335.0	 1694	 1268	 1319	 1122	920.8	908.6	815.7	574.3	519.3	437.6	468.6	392.4	390.1	429.2	527.3	594.6	678.5	617.5	464.0	408.9	561.6	449.7	280.5	287.0	391.6	 1174	9999.9	9999.9	9999.9	 9159	593.8	434.0	326.1	245.9	166.9	126.3	91.52	76.63	62.78	52.98	42.38	43.55	34.73	34.31	28.81	29.77	25.94	20.90	22.20	21.60	18.89
340.0	 1751	 1217	 1373	 1109	 1016	867.9	722.2	585.8	507.4	443.3	439.2	355.1	399.5	445.2	530.5	608.7	644.4	610.8	486.1	407.7	407.3	578.8	414.1	299.7	333.9	400.6	 1180	9999.9	9999.9	9999.9	9999.9	639.2	464.3	346.5	271.2	175.6	121.7	89.83	72.42	57.92	47.12	41.60	40.69	37.28	30.50	29.93	32.28	26.42	23.87	23.65	20.72
345.0	 1699	 1261	 1217	 1276	 1071	868.7	727.7	631.7	517.9	428.6	425.1	406.0	410.7	435.0	543.3	560.3	611.8	583.1	511.7	416.7	361.9	429.6	582.1	397.6	308.2	360.2	436.0	 1148	9999.9	9999.9	9999.9	9999.9	676.8	491.8	347.1	261.0	185.1	120.1	89.96	67.69	56.66	47.55	43.21	36.20	34.87	31.42	30.04	24.36	24.21	22.45	21.79
350.0	 1511	 1379	 1293	 1121	914.0	932.8	714.5	625.4	527.0	484.5	415.9	457.2	403.0	450.6	513.6	581.2	591.1	628.4	529.4	458.4	408.2	390.9	514.1	579.0	413.8	359.3	367.6	450.1	 1190	9999.9	9999.9	9999.9	9999.9	720.1	488.7	367.0	274.2	177.5	116.8	88.65	66.03	57.10	48.92	38.72	37.05	32.23	31.16	27.81	25.20	23.15	23.32
355.0	 1859	 1500	 1099	972.6	886.0	858.8	801.9	625.9	559.1	487.8	470.9	455.3	458.0	475.0	503.0	535.1	612.4	612.0	582.7	497.8	468.1	435.4	425.1	609.0	638.2	430.2	418.7	398.1	467.7	 1199	9999.9	9999.9	9999.9	9999.9	717.6	512.5	345.8	251.1	166.6	112.5	78.71	66.09	54.57	43.39	40.86	38.01	29.46	28.77	23.77	24.42	22.30
360.0	 1756	 1561	 1475	 1233	 1125	913.8	676.5	590.6	553.2	533.7	507.8	510.5	462.6	502.4	527.0	593.8	609.6	605.5	589.0	526.6	512.5	488.2	488.1	527.0	690.8	620.6	491.9	443.2	419.0	485.0	 1209	9999.9	9999.9	9999.9	9999.9	708.6	483.7	333.8	250.6	161.0	107.0	81.45	62.13	53.34	45.73	38.55	34.87	31.76	28.79	26.20	25.01
365.0	 1481	 1484	 1350	 1236	 1079	855.4	707.7	609.1	616.9	537.0	515.0	495.0	469.2	534.8	527.0	584.9	648.1	628.6	612.5	571.4	552.0	567.5	564.9	586.2	636.7	763.6	633.8	523.9	471.2	443.4	491.2	 1220	9999.9	9999.9	9999.9	9999.9	697.5	482.4	322.9	230.6	161.3	103.7	81.74	62.37	50.53	39.52	37.13	32.83	29.56	28.66	25.45
370.0	 1529	 1551	 1336	 1128	 1012	961.1	683.1	670.5	596.4	541.4	543.9	543.0	530.1	578.5	573.0	617.2	670.4	679.0	665.9	635.6	610.5	613.9	642.6	647.0	670.6	741.1	851.3	658.6	537.4	497.7	474.1	501.9	 1243	9999.9	9999.9	9999.9	9999.9	668.3	455.5	307.8	217.7	151.2	107.3	74.76	55.11	48.67	40.83	34.97	30.30	29.43	26.72
375.0	 1760	 1464	 1192	 1329	990.9	959.2	678.2	777.3	622.9	650.8	543.9	564.6	571.6	586.8	595.8	671.1	730.6	700.2	699.5	694.0	683.5	664.6	699.5	712.9	749.0	742.3	824.6	855.5	653.9	573.0	515.0	470.8	517.6	 1212	9999.9	9999.9	9999.9	9999.9	625.5	415.9	284.8	210.2	143.8	92.53	75.57	57.35	45.93	37.76	35.18	30.55	25.50
380.0	 1627	 1324	 1233	 1251	 1000	845.7	798.2	751.9	637.2	664.1	619.7	583.9	633.9	648.9	657.1	688.4	743.3	758.8	710.2	718.0	720.2	716.3	798.5	799.9	800.9	804.7	803.2	888.3	870.1	658.1	586.3	511.5	469.0	502.7	 1211	9999.9	9999.9	9999.9	9999.9	598.7	414.2	269.0	203.1	135.5	96.74	71.11	55.19	42.18	35.41	30.62	26.29
385.0	 1487	 1464	 1223	 1050	 1188	957.6	818.5	817.6	748.1	672.6	678.7	623.4	673.5	661.6	697.5	731.7	787.4	789.2	754.9	764.5	751.6	784.8	824.3	852.2	897.1	904.7	869.2	893.6	958.4	844.5	684.9	569.3	509.2	461.9	509.9	 1205	9999.9	9999.9	9999.9	9999.9	568.2	384.7	265.4	183.4	127.5	83.57	65.67	50.27	40.14	31.90	26.90
390.0	 1384	 1382	 1263	 1231	 1166	985.4	832.9	792.2	773.1	743.6	769.1	674.7	675.0	684.6	700.6	770.8	832.4	860.6	822.1	821.8	827.4	859.8	915.9	934.6	946.7	957.8	987.2	943.7	953.8	991.1	819.7	670.1	581.0	516.5	476.1	515.7	 1167	9999.9	9999.9	9999.9	9999.9	529.7	367.1	244.0	179.1	126.4	86.51	64.28	48.78	40.22	30.56
395.0	 1820	 1131	 1488	 1089	 1161	993.3	881.2	762.0	818.4	825.9	790.8	667.8	737.3	748.1	773.3	794.2	859.9	879.5	868.3	846.7	858.2	893.7	954.8	994.5	 1002	 1051	 1026	 1010	944.1	983.9	990.0	807.3	648.4	590.8	535.3	480.4	489.9	 1148	9999.9	9999.9	9999.9	9999.9	515.1	343.7	228.3	166.4	119.3	83.77	63.04	49.24	37.18
400.0	 1496	 1135	 1142	 1295	 1121	863.3	873.7	797.1	776.3	825.0	746.0	735.6	741.4	776.2	852.8	811.1	931.2	883.0	895.1	925.0	941.0	989.0	968.4	 1049	 1087	 1117	 1097	 1053	 1046	 1000	989.3	979.8	776.1	665.0	585.1	522.1	442.9	454.0	 1113	9999.9	9999.9	9999.9	9999.9	481.6	325.4	218.9	160.4	108.5	74.75	60.47	46.32
405.0	 1246	 1036	 1023	 1107	 1115	962.5	838.4	848.5	778.5	830.6	863.3	711.6	752.1	796.0	857.7	875.4	918.5	944.4	908.8	929.8	944.6	982.9	 1053	 1058	 1120	 1113	 1146	 1120	 1106	 1077	 1009	 1039	955.7	775.2	656.6	592.5	481.1	426.2	437.8	 1076	9999.9	9999.9	9999.9	9999.9	434.0	299.6	194.7	139.8	102.1	72.87	51.21
410.0	 1331	 1276	938.0	996.3	899.6	944.1	859.4	905.9	795.6	771.9	776.0	799.2	830.5	795.8	912.6	978.8	963.2	964.7	969.8	974.3	996.0	 1027	 1081	 1105	 1145	 1200	 1182	 1176	 1154	 1111	 1052	 1035	 1059	943.6	749.1	647.9	538.1	460.3	393.9	417.6	 1031	9999.9	9999.9	9999.9	9999.9	414.1	268.5	182.6	139.9	96.11	62.06
415.0	 1210	 1114	 1159	 1036	970.9	958.1	849.3	802.7	805.0	880.0	824.1	809.4	835.2	873.5	932.9	999.0	986.4	993.4	984.3	981.6	967.5	 1018	 1037	 1132	 1159	 1191	 1181	 1214	 1183	 1144	 1082	 1062	 1028	 1077	890.7	739.2	603.3	497.8	412.1	367.4	377.6	 1030	9999.9	9999.9	9999.9	9999.9	381.4	252.0	174.1	120.7	81.37
420.0	 1163	 1029	844.4	 1004	981.8	922.1	870.1	788.6	810.9	828.8	769.0	821.0	848.4	842.9	959.7	 1028	999.1	 1039	977.0	979.4	995.9	984.6	 1080	 1111	 1154	 1187	 1179	 1200	 1210	 1192	 1141	 1071	 1061	 1051	 1031	829.2	660.2	537.5	452.4	375.3	323.0	362.4	 1002	9999.9	9999.9	9999.9	 9487	371.6	237.5	160.6	117.0
425.0	 1313	 1091	945.7	 1133	924.9	887.1	802.6	823.0	833.9	829.8	789.9	834.1	867.1	951.1	905.8	 1031	 1063	 1007	972.8	984.2	981.1	 1004	 1073	 1113	 1172	 1201	 1209	 1189	 1210	 1186	 1128	 1112	 1066	 1022	 1053	922.4	709.0	575.2	481.0	391.7	333.3	303.0	327.3	959.5	9999.9	9999.9	9999.9	 8125	339.1	224.8	158.5
430.0	986.5	 1040	 1091	 1074	837.2	892.4	867.0	732.4	836.0	853.8	815.6	807.2	875.3	939.2	963.4	 1054	 1076	 1051	 1016	968.7	966.3	 1005	 1095	 1118	 1114	 1188	 1180	 1213	 1224	 1188	 1171	 1131	 1109	 1035	 1002	943.4	827.0	642.5	528.5	425.5	350.3	309.3	270.5	299.8	939.6	9999.9	9999.9	9999.9	 7378	329.4	216.1
435.0	886.6	914.8	905.8	782.9	831.6	748.7	707.0	764.5	750.8	884.9	798.1	883.4	854.6	967.6	998.4	 1019	 1076	 1013	 1025	944.9	955.6	992.0	 1049	 1100	 1148	 1172	 1188	 1183	 1193	 1185	 1136	 1147	 1108	 1044	989.4	923.4	867.6	699.0	567.7	462.0	380.5	322.4	290.3	245.6	297.3	929.6	9999.9	9999.9	9999.9	 7274	306.4
440.0	894.8	989.0	820.9	851.9	763.4	799.3	792.8	782.6	794.6	862.6	811.8	801.1	867.5	915.8	 1033	 1047	 1062	988.4	 1007	976.2	935.3	980.8	996.6	 1044	 1135	 1137	 1182	 1164	 1158	 1127	 1124	 1128	 1122	 1068	 1009	922.0	848.4	756.9	608.2	499.8	417.4	349.8	311.2	259.8	239.9	287.5	929.4	9999.9	9999.9	9999.9	 6433
445.0	 1083	939.6	889.2	833.8	762.2	728.9	712.8	726.0	784.9	754.3	770.1	771.2	829.3	899.6	985.3	 1001	 1017	 1048	972.9	960.0	947.9	943.1	974.1	 1025	 1069	 1066	 1115	 1138	 1124	 1101	 1111	 1125	 1083	 1040	994.9	909.2	810.3	776.8	682.1	526.3	452.9	372.7	326.1	279.1	240.0	224.2	276.2	919.9	9999.9	9999.9	9999.9
450.0	936.4	943.0	713.5	787.8	726.8	644.2	748.7	692.7	732.8	834.7	817.8	812.5	817.1	859.8	986.9	 1009	 1003	995.6	 1011	914.2	914.4	897.8	958.3	979.5	 1018	 1041	 1057	 1091	 1112	 1086	 1108	 1076	 1044	 1021	966.5	868.7	799.9	737.4	699.6	592.1	476.8	399.7	338.0	307.5	268.9	226.1	224.6	271.9	911.6	9999.9	9999.9
455.0	972.8	772.2	671.3	822.6	674.7	653.2	727.0	676.4	713.2	734.1	769.5	750.0	803.4	849.5	916.5	983.8	975.5	979.5	926.0	898.7	880.5	896.6	908.6	930.5	985.1	982.7	999.6	 1007	 1031	 1042	 1008	 1019	998.8	989.0	932.8	869.0	803.9	725.0	660.4	618.0	504.4	425.7	356.0	317.7	275.2	233.6	220.7	202.0	262.6	896.6	9999.9
460.0	870.0	942.5	742.5	737.0	797.2	761.6	700.9	598.6	679.3	647.9	704.4	717.2	743.9	788.0	877.1	914.1	979.6	950.1	912.1	844.5	851.4	823.5	873.8	914.4	918.4	943.1	932.0	968.9	967.5	984.7	957.4	953.0	976.1	947.0	905.9	853.8	780.8	696.1	623.1	582.3	558.6	454.0	379.4	323.8	287.0	258.1	230.3	205.6	191.0	249.3	884.3
465.0	 1023	944.0	730.7	740.8	940.7	785.9	635.6	622.5	652.6	684.1	673.2	730.4	744.7	777.4	838.6	861.8	916.6	876.9	893.8	844.0	795.4	811.4	835.5	843.3	880.3	872.1	922.9	900.7	907.6	912.5	915.1	916.5	913.8	914.1	861.8	836.4	749.4	690.6	606.6	566.2	530.0	479.6	391.6	339.8	300.1	277.3	235.0	208.0	193.0	181.8	243.3
470.0	921.9	925.2	762.4	802.4	841.2	735.1	578.0	630.0	604.6	641.6	649.9	667.7	701.2	769.2	770.5	834.7	903.9	912.5	816.8	773.4	757.7	758.9	794.9	782.1	808.6	824.9	820.9	815.2	845.7	848.4	850.0	855.6	869.8	857.3	817.4	788.9	720.6	648.8	596.5	523.9	502.5	488.9	420.3	350.0	317.0	272.8	254.1	225.4	194.9	188.4	167.0
475.0	773.4	554.8	705.0	609.8	545.7	514.2	507.9	500.4	478.0	589.5	587.5	620.5	662.1	701.3	780.2	806.6	839.1	794.9	749.7	722.8	729.2	712.1	738.3	743.4	733.8	745.5	771.1	787.5	779.0	789.6	760.1	785.3	793.5	794.5	761.6	713.5	699.8	610.2	551.8	502.0	458.5	447.4	416.5	362.4	309.8	280.1	255.9	224.3	207.0	183.0	161.6
480.0	611.0	532.4	791.9	703.1	499.0	604.4	478.9	436.7	573.0	536.1	567.7	554.1	595.7	658.7	680.8	776.1	784.4	743.3	745.0	692.3	671.6	669.8	684.4	680.6	672.5	694.3	691.4	709.4	724.7	710.4	713.7	717.3	728.9	722.9	709.0	682.6	643.7	592.8	543.4	483.7	447.1	405.6	399.4	382.2	323.0	271.5	260.3	225.0	195.8	183.9	155.0
485.0	661.0	517.8	539.4	501.6	404.4	533.8	505.4	450.7	482.1	522.2	460.6	545.4	619.3	634.2	681.1	699.3	740.4	735.9	693.3	664.6	632.2	630.2	649.6	663.9	637.5	656.5	642.6	683.0	663.0	676.1	670.3	685.8	679.4	691.7	672.2	653.9	614.5	561.7	512.5	473.1	429.8	399.3	371.5	365.0	339.4	289.0	260.1	228.4	207.4	191.3	163.0
490.0	682.0	416.0	501.9	489.6	465.3	479.6	426.4	368.3	415.7	490.0	462.1	519.9	573.6	576.6	643.5	664.5	705.0	721.4	635.0	630.1	612.6	626.2	614.2	613.9	619.5	618.4	624.3	647.6	610.7	644.2	628.3	649.0	642.3	644.5	636.6	609.4	579.7	531.7	491.8	458.8	419.2	399.2	361.2	340.8	338.4	317.2	270.0	234.0	205.4	187.7	166.9
495.0	499.7	466.2	421.3	499.6	494.4	433.5	429.2	421.9	398.5	471.6	440.5	537.7	505.9	563.2	621.8	646.1	666.6	667.1	636.8	601.0	585.3	566.0	549.4	576.8	572.1	589.0	583.1	583.1	573.2	575.5	586.1	585.2	589.0	590.1	608.0	571.3	537.9	502.1	482.4	436.7	396.5	373.0	347.2	315.9	316.0	306.6	274.2	238.4	217.0	195.4	173.7
500.0	496.9	490.6	483.6	422.3	422.8	421.6	346.8	379.9	385.7	400.1	433.8	458.4	505.1	549.3	545.7	619.9	596.0	611.7	603.3	584.9	560.1	523.3	543.9	536.8	523.8	534.4	534.3	537.1	548.8	548.6	539.4	547.3	543.4	546.7	547.6	535.4	498.1	474.0	442.2	415.2	385.7	368.0	342.2	313.1	286.5	287.5	281.1	247.4	218.8	191.9	169.7
505.0	480.8	467.8	535.0	385.2	394.8	355.1	319.6	354.0	369.7	410.6	403.7	410.0	462.4	493.6	509.4	564.3	552.1	565.2	528.5	532.7	511.1	489.8	485.1	512.0	508.3	501.8	496.2	509.5	499.8	492.7	488.4	517.0	495.2	523.2	486.7	477.3	445.3	438.9	410.1	379.2	360.9	344.1	316.4	297.5	274.1	259.3	266.4	244.3	210.9	188.2	166.0
510.0	355.7	413.4	357.2	441.4	304.1	369.7	322.9	364.8	280.4	398.6	338.7	431.6	409.2	461.2	490.8	493.1	517.2	512.0	503.3	491.1	485.9	481.0	454.7	468.2	449.3	453.3	458.5	454.2	432.0	461.6	436.8	447.9	450.1	476.5	473.9	467.2	420.8	395.7	376.6	354.9	336.3	318.9	308.4	273.0	263.8	245.9	243.7	236.7	211.0	186.9	168.4
515.0	378.7	459.9	402.5	408.8	329.1	280.0	273.0	278.6	281.2	374.2	369.1	337.4	390.1	427.1	432.4	480.2	442.6	476.4	453.3	460.2	439.7	424.5	412.2	434.5	418.3	422.4	412.3	425.3	406.5	412.9	434.6	409.4	430.0	415.6	416.0	412.5	380.2	378.2	344.9	317.8	306.0	298.7	279.1	258.8	251.5	227.6	217.5	209.2	206.7	185.1	163.5
520.0	361.6	273.7	344.2	277.7	216.6	247.0	253.1	244.0	262.2	292.7	334.3	317.4	355.5	396.8	426.1	428.0	420.3	439.6	433.7	436.6	404.5	386.4	388.2	394.5	392.5	390.1	391.4	389.7	376.5	390.2	379.9	391.4	385.9	388.0	395.9	385.8	364.5	336.6	307.1	301.8	278.9	270.5	259.9	247.7	232.2	217.7	207.0	194.4	194.6	192.7	174.4
525.0	390.7	348.3	273.3	290.5	309.6	350.4	223.1	240.5	237.2	276.4	293.0	258.4	290.3	379.9	374.9	420.8	405.7	395.8	368.7	352.8	378.9	367.6	376.5	356.3	376.0	356.2	347.2	351.0	362.3	352.2	338.4	363.5	356.0	355.5	358.3	349.6	323.2	299.0	289.6	283.6	261.1	244.0	231.8	215.1	215.9	201.4	192.3	189.1	178.5	182.5	166.7
530.0	395.1	391.5	191.6	224.7	280.2	278.2	205.6	220.3	249.3	237.4	277.2	268.6	277.6	321.3	374.0	354.6	353.0	373.5	354.3	359.7	336.9	312.9	329.0	317.6	332.4	324.8	323.2	329.0	315.1	315.0	307.8	321.3	314.9	322.4	317.7	312.8	288.8	271.8	251.8	246.2	228.7	216.9	210.0	202.4	194.7	181.1	178.6	173.2	157.3	158.1	154.6
535.0	230.8	169.0	255.5	266.1	250.6	210.9	180.8	191.7	186.5	228.6	236.1	248.7	242.6	318.8	373.2	332.2	322.4	323.8	318.8	293.3	301.3	315.0	290.4	289.5	290.0	289.4	284.8	296.4	280.6	287.5	284.3	292.2	288.2	293.1	283.9	260.8	266.9	234.5	244.1	224.7	211.3	205.8	195.5	175.6	181.5	177.2	160.3	146.5	150.4	136.9	139.0
540.0	271.7	278.5	215.4	280.4	149.3	249.2	192.0	171.8	218.6	196.2	231.8	229.8	218.3	258.9	428.2	346.6	317.0	289.2	297.1	272.3	278.0	272.5	285.8	275.7	266.7	273.3	244.2	258.7	265.9	255.6	253.6	250.3	256.6	259.0	257.5	258.9	248.9	232.7	221.6	204.1	188.9	181.1	177.4	160.1	164.8	162.9	148.9	140.5	129.6	128.1	116.4
545.0	306.5	201.1	172.0	162.6	175.6	165.4	182.5	179.4	161.5	170.4	181.4	191.7	249.0	256.6	457.6	724.1	332.2	270.5	278.4	267.4	249.5	240.6	254.3	241.1	223.9	235.7	232.0	225.6	223.8	225.0	219.1	230.3	230.5	220.6	241.1	225.6	210.6	202.1	189.3	180.2	173.4	165.7	163.2	148.7	137.6	137.0	133.9	122.0	119.0	118.4	104.9
550.0	315.6	203.0	188.2	175.7	158.4	130.6	135.6	162.3	141.7	167.1	174.8	186.1	217.8	213.2	319.9	 1345	611.4	258.5	245.1	236.0	229.3	227.5	222.4	227.0	209.3	225.7	219.8	221.2	218.0	224.7	206.1	220.8	220.0	212.1	202.5	206.0	197.7	178.4	175.6	168.1	167.2	153.8	153.0	130.4	133.0	125.6	113.0	121.4	111.6	112.4	100.1
