Sample:	'SLABO1-5-5-320
File name:	1P6.FD3
Run Date:	17:17:05, 08/15/2022
Operator:	Administrator
Comment:	'

Instrument
Model:	F-7000 FL Spectrophotometer
Serial Number:	2354-007
ROM Version:	5J14000 06

Instrument Parameters
Measurement type:	3-D Scan
Data mode:	Fluorescence
EX  Start WL:	200.0 nm
EX  End WL:	450.0 nm
EX Sampling Interval:	5.0 nm
EM  Start WL:	280.0 nm
EM  End WL:	550.0 nm
EM Sampling Interval:	5.0 nm
Scan speed:	12000 nm/min
EX Slit:	5.0 nm
EM Slit:	5.0 nm
PMT Voltage:	700 V
Response:	Auto 
Corrected spectra:	Off
Shutter control:	On
Contour interval:	25.000

Peak integration
Integration method:	Rectangular
Sensitivity:	1
Threshold:	1.000

Peaks
No.	ApexEX/EM(nm)	Height(Data)
1	205.0/325.0	669.1
2	210.0/305.0	502.7
3	210.0/465.0	812.5
4	215.0/520.0	412.1
5	220.0/325.0	691.3
6	225.0/320.0	686.5
7	225.0/330.0	851.6
8	225.0/365.0	 1114
9	230.0/335.0	952.0
10	230.0/360.0	 1006
11	230.0/370.0	 1197
12	275.0/435.0	 3538
13	285.0/425.0	 3527
14	335.0/430.0	 4435
15	385.0/290.0	13.32
16	405.0/290.0	10.01
17	410.0/305.0	12.02
18	425.0/355.0	16.19
19	430.0/310.0	10.18
20	430.0/325.0	11.19
21	430.0/340.0	13.56
22	435.0/330.0	11.17
23	445.0/380.0	17.56

Data Points
	200.0	205.0	210.0	215.0	220.0	225.0	230.0	235.0	240.0	245.0	250.0	255.0	260.0	265.0	270.0	275.0	280.0	285.0	290.0	295.0	300.0	305.0	310.0	315.0	320.0	325.0	330.0	335.0	340.0	345.0	350.0	355.0	360.0	365.0	370.0	375.0	380.0	385.0	390.0	395.0	400.0	405.0	410.0	415.0	420.0	425.0	430.0	435.0	440.0	445.0	450.0
280.0	-9.048	87.88	-3.075	-14.68	-0.699	-9.457	-10.66	2.604	5.962	8.283	30.43	28.39	15.39	5.780	7.182	 1837	9999.9	 5061	164.8	23.36	28.47	31.42	23.67	20.69	19.01	15.84	15.77	16.40	13.40	14.34	14.93	12.98	14.42	14.82	14.95	10.84	12.85	9.727	13.20	6.332	7.918	6.795	5.386	4.488	4.916	5.041	3.922	3.135	3.854	3.110	2.173
285.0	50.87	72.32	27.65	69.58	51.46	37.94	38.10	12.41	22.27	48.53	64.50	59.43	66.02	55.46	46.50	152.8	 4586	9999.9	9999.9	 1113	50.14	49.54	39.70	35.65	23.80	23.41	21.77	21.53	15.88	17.37	15.25	14.78	17.17	14.23	14.90	12.32	13.11	10.69	11.21	9.540	10.20	7.259	5.980	4.878	3.889	3.709	4.499	3.750	3.353	4.210	2.784
290.0	164.1	123.4	106.9	81.37	107.4	85.21	103.7	52.89	52.75	68.78	83.10	83.61	119.1	156.7	150.9	140.1	424.3	9999.9	9999.9	9999.9	 1544	66.38	51.86	48.96	39.55	29.46	24.99	22.84	22.01	19.38	17.40	14.94	14.63	17.34	14.79	13.12	10.80	13.32	10.85	9.513	8.701	10.01	7.210	6.832	4.362	4.600	5.886	4.900	4.374	3.986	4.883
295.0	177.2	184.3	164.5	146.0	244.3	207.7	168.2	122.1	79.55	101.4	140.2	124.8	143.3	221.8	358.9	312.6	313.2	870.0	9999.9	9999.9	9999.9	 2154	75.55	62.18	54.80	44.05	32.40	27.68	24.21	25.62	18.08	17.96	17.99	17.08	14.59	14.43	14.21	10.74	10.54	8.785	9.153	6.645	8.660	7.060	6.150	5.255	5.020	5.265	5.990	3.491	5.950
300.0	163.4	267.0	210.8	259.4	327.7	275.9	303.8	207.4	185.0	138.6	177.2	200.3	201.2	284.8	489.3	609.3	528.6	447.1	873.4	9999.9	9999.9	9999.9	 2377	105.0	78.01	64.66	52.96	38.20	33.92	27.05	19.73	22.49	20.81	20.78	16.02	19.77	17.04	12.63	9.858	10.59	11.08	9.128	9.317	7.808	7.172	6.784	5.395	5.937	5.880	5.266	4.634
305.0	278.0	382.3	502.7	389.8	398.6	403.6	451.7	270.2	219.6	177.5	189.5	251.7	305.1	390.7	543.7	863.4	874.0	630.2	409.1	860.5	9999.9	9999.9	9999.9	 2816	116.5	91.05	74.75	63.34	45.41	32.81	34.86	28.96	24.68	20.98	21.98	18.70	17.56	15.32	15.76	12.24	11.22	10.11	12.02	9.913	8.006	7.310	6.391	7.920	4.642	5.171	5.747
310.0	494.6	430.6	444.3	425.3	531.1	494.7	551.0	383.7	307.2	204.1	239.9	298.5	355.0	460.7	678.4	915.0	 1113	871.6	525.1	338.2	863.3	9999.9	9999.9	9999.9	 2963	136.4	109.0	92.28	63.06	46.97	41.57	34.03	28.60	24.25	20.72	22.22	18.84	17.86	15.20	13.00	12.81	11.47	11.14	9.760	8.771	7.833	10.18	8.147	8.067	6.530	5.705
315.0	550.5	503.8	467.8	375.7	621.2	641.9	578.0	461.7	321.4	285.6	261.0	341.8	413.9	571.1	764.1	994.8	 1155	 1196	711.5	435.2	305.7	887.6	9999.9	9999.9	9999.9	 2748	160.2	124.6	86.16	71.89	51.47	38.80	35.98	28.97	26.09	23.84	21.45	19.23	17.00	15.55	14.04	13.92	10.59	9.675	10.85	10.19	8.499	8.539	6.751	6.653	6.040
320.0	714.3	536.2	595.9	425.1	540.1	686.5	629.3	518.1	418.5	366.3	387.6	428.5	482.8	615.8	861.5	 1107	 1202	 1201	 1049	614.3	377.0	313.9	897.4	9999.9	9999.9	9999.9	 2894	179.3	127.9	99.18	80.38	57.60	40.29	36.56	31.40	29.17	20.71	20.96	19.17	14.94	11.89	14.03	11.47	10.83	10.40	9.333	10.63	9.252	7.337	7.362	6.693
325.0	547.4	669.1	616.6	639.6	691.3	632.9	754.1	600.8	459.9	385.4	438.9	441.2	591.6	693.6	951.8	 1132	 1388	 1236	 1149	933.4	514.0	359.7	326.4	891.5	9999.9	9999.9	9999.9	 3335	194.3	136.0	113.1	89.61	63.27	43.90	41.80	33.17	27.65	22.91	17.35	16.26	16.09	14.91	14.30	11.15	9.913	10.27	11.19	8.981	8.356	8.054	8.167
330.0	504.1	633.7	624.2	613.1	655.9	851.6	807.8	735.4	531.6	510.5	475.0	517.9	617.1	769.1	994.4	 1264	 1445	 1349	 1178	 1019	789.0	486.1	352.8	328.5	911.2	9999.9	9999.9	9999.9	 3327	222.1	149.8	115.3	102.0	66.74	49.85	40.01	34.17	26.83	21.44	19.54	16.97	14.54	14.83	12.62	12.18	11.94	9.220	11.17	9.732	10.30	8.546
335.0	546.9	656.3	630.0	559.6	648.5	832.8	952.0	724.2	599.1	570.4	512.7	578.8	649.2	822.0	 1092	 1357	 1497	 1442	 1286	 1006	948.3	727.1	482.3	390.3	382.3	948.5	9999.9	9999.9	9999.9	 3671	237.7	172.9	125.0	98.68	71.78	49.98	37.44	33.32	25.00	18.88	18.97	16.16	15.10	12.59	13.40	10.78	9.213	9.394	11.04	10.68	8.712
340.0	689.0	538.7	560.3	656.3	756.1	844.2	746.0	709.2	651.5	565.5	595.5	593.9	734.9	883.9	 1156	 1402	 1580	 1574	 1422	 1143	902.4	954.3	724.3	513.2	447.0	400.8	969.5	9999.9	9999.9	9999.9	 4147	254.9	186.2	133.9	106.8	68.55	54.12	42.79	31.69	22.67	21.26	20.44	14.74	13.74	14.04	11.90	13.56	11.71	11.31	9.591	8.024
345.0	594.6	571.8	624.6	736.5	721.7	845.9	793.8	756.2	612.9	629.9	704.3	696.8	711.8	972.3	 1193	 1439	 1639	 1635	 1572	 1272	 1037	973.2	985.9	734.1	605.5	475.9	474.3	 1016	9999.9	9999.9	9999.9	 4667	274.8	195.5	140.1	99.44	66.94	52.20	37.98	29.70	20.18	19.54	16.06	14.03	13.03	12.70	11.53	11.79	12.17	10.95	8.705
350.0	555.0	629.6	641.2	680.9	776.0	893.6	886.7	858.0	728.5	794.6	788.8	762.4	792.1	 1011	 1245	 1474	 1647	 1733	 1647	 1439	 1260	 1128	 1084	 1140	872.7	704.7	582.9	507.6	 1050	9999.9	9999.9	9999.9	 4796	276.9	203.4	135.4	100.4	72.51	43.82	35.38	28.09	20.01	19.59	17.94	12.75	14.82	12.69	12.00	11.81	10.51	11.88
355.0	664.2	643.3	710.8	751.7	754.5	910.5	974.4	814.2	819.6	812.0	828.7	874.6	927.0	 1050	 1397	 1523	 1707	 1888	 1823	 1625	 1437	 1322	 1297	 1334	 1255	981.2	836.8	666.4	594.6	 1095	9999.9	9999.9	9999.9	 5250	289.4	197.5	134.9	94.06	69.76	47.56	39.19	29.60	20.31	20.71	12.82	16.19	13.12	13.75	12.92	9.802	11.51
360.0	646.4	566.2	656.6	753.4	799.6	966.9	 1006	996.0	978.5	959.5	907.5	936.4	 1062	 1194	 1425	 1663	 1836	 2008	 1950	 1796	 1614	 1586	 1503	 1481	 1546	 1362	 1124	929.6	772.0	656.6	 1138	9999.9	9999.9	9999.9	 5078	278.8	188.1	135.6	91.62	65.70	46.30	34.65	25.28	20.91	14.30	13.21	13.61	14.08	11.71	12.39	12.54
365.0	669.9	757.6	699.7	820.8	781.8	 1114	957.4	998.3	964.6	 1050	 1092	 1072	 1252	 1407	 1615	 1832	 2007	 2086	 2018	 1996	 1857	 1812	 1768	 1757	 1758	 1793	 1504	 1223	 1033	837.9	678.8	 1159	9999.9	9999.9	9999.9	 5747	283.8	195.8	126.0	88.88	64.87	42.66	34.70	24.03	21.00	15.97	14.61	14.81	12.57	12.01	11.29
370.0	817.8	562.4	772.5	823.8	 1022	 1007	 1197	 1195	 1124	 1197	 1251	 1322	 1383	 1524	 1707	 1883	 2075	 2229	 2141	 2145	 2038	 2043	 2089	 2063	 2052	 1999	 1949	 1644	 1345	 1107	876.5	703.2	 1152	9999.9	9999.9	9999.9	 5676	276.5	179.7	116.3	84.79	61.81	42.37	31.43	23.03	20.73	17.29	15.54	13.31	14.19	11.69
375.0	874.4	622.3	755.3	778.3	817.2	 1119	 1160	 1248	 1248	 1361	 1337	 1504	 1601	 1672	 1910	 2044	 2255	 2306	 2370	 2304	 2258	 2286	 2368	 2358	 2375	 2282	 2206	 2098	 1711	 1397	 1136	865.6	712.3	 1132	9999.9	9999.9	9999.9	 6133	259.9	170.6	118.7	84.57	60.91	41.56	31.70	22.56	20.32	16.27	15.52	15.46	12.57
380.0	745.9	654.4	792.1	887.8	960.8	 1181	 1111	 1305	 1433	 1517	 1632	 1677	 1757	 1860	 2049	 2311	 2306	 2437	 2522	 2455	 2500	 2552	 2611	 2681	 2655	 2607	 2458	 2405	 2153	 1713	 1422	 1129	880.2	717.0	 1169	9999.9	9999.9	9999.9	 5653	242.5	169.1	117.1	76.79	56.60	39.57	30.74	25.61	19.48	15.04	17.56	12.55
385.0	815.3	659.3	836.9	855.5	 1002	 1101	 1287	 1358	 1425	 1637	 1717	 1800	 1870	 2017	 2154	 2354	 2530	 2587	 2637	 2632	 2652	 2736	 2899	 2997	 2991	 2922	 2806	 2620	 2524	 2200	 1786	 1446	 1157	891.3	718.6	 1139	9999.9	9999.9	9999.9	 5799	225.0	163.1	99.63	77.22	51.17	37.29	31.65	24.77	18.27	16.53	15.20
390.0	797.1	663.4	848.3	 1104	 1190	 1337	 1475	 1526	 1605	 1827	 1832	 2009	 2002	 2195	 2349	 2497	 2695	 2767	 2743	 2857	 2887	 3014	 3171	 3223	 3292	 3243	 3106	 2964	 2797	 2632	 2177	 1811	 1480	 1167	904.6	696.5	 1143	9999.9	9999.9	9999.9	 5472	222.5	143.7	94.82	70.13	51.77	34.86	30.82	26.29	17.66	15.47
395.0	585.1	700.1	863.8	948.5	 1076	 1448	 1492	 1693	 1804	 1883	 1994	 2113	 2231	 2431	 2561	 2694	 2860	 2930	 2977	 3038	 3086	 3240	 3408	 3503	 3559	 3494	 3446	 3339	 3098	 2885	 2605	 2233	 1814	 1514	 1174	878.3	687.4	 1123	9999.9	9999.9	9999.9	 5512	216.1	141.4	89.75	67.13	51.33	36.76	26.09	25.06	15.10
400.0	893.5	844.5	789.0	 1077	 1200	 1469	 1609	 1726	 1887	 2170	 2190	 2347	 2382	 2614	 2746	 2884	 3013	 3004	 3118	 3166	 3258	 3384	 3621	 3704	 3776	 3790	 3722	 3590	 3404	 3124	 2964	 2666	 2226	 1848	 1509	 1159	868.3	672.7	 1105	9999.9	9999.9	9999.9	 4913	206.3	131.7	84.07	67.65	45.63	36.82	28.49	21.81
405.0	797.0	698.6	713.9	977.7	 1207	 1432	 1647	 1888	 1980	 2214	 2313	 2401	 2533	 2721	 2860	 2996	 3196	 3225	 3237	 3273	 3332	 3632	 3782	 3869	 4019	 4054	 4000	 3875	 3656	 3491	 3195	 2997	 2678	 2248	 1789	 1452	 1097	797.2	638.1	 1067	9999.9	9999.9	9999.9	 4603	187.0	119.0	78.66	64.48	45.66	31.59	26.49
410.0	755.8	744.5	936.5	952.6	 1316	 1671	 1720	 1939	 1993	 2368	 2399	 2572	 2715	 2822	 2972	 3137	 3226	 3303	 3328	 3366	 3480	 3720	 3842	 3995	 4145	 4163	 4146	 4111	 3901	 3728	 3471	 3171	 3038	 2655	 2155	 1763	 1367	 1010	753.2	583.4	 1039	9999.9	9999.9	9999.9	 4232	166.2	116.4	78.29	56.79	41.12	33.10
415.0	822.1	748.1	921.7	985.6	 1226	 1364	 1815	 1916	 2304	 2382	 2531	 2674	 2862	 2990	 3124	 3300	 3430	 3376	 3305	 3337	 3503	 3715	 3929	 4099	 4240	 4227	 4249	 4256	 4137	 3964	 3692	 3458	 3230	 3010	 2552	 2077	 1607	 1269	930.8	695.4	534.7	 1013	9999.9	9999.9	9999.9	 4328	171.7	103.3	76.39	55.18	41.13
420.0	767.7	869.3	877.6	879.3	 1319	 1760	 1771	 1998	 2292	 2459	 2539	 2690	 2985	 3095	 3182	 3366	 3430	 3459	 3379	 3361	 3499	 3725	 3900	 4113	 4297	 4309	 4350	 4354	 4251	 4124	 3861	 3671	 3447	 3187	 2946	 2387	 1859	 1477	 1146	852.1	613.3	512.0	979.8	9999.9	9999.9	9999.9	 3801	152.7	101.3	69.24	55.92
425.0	733.1	871.5	847.8	984.5	 1179	 1614	 1892	 2064	 2333	 2403	 2510	 2659	 3068	 3148	 3309	 3452	 3451	 3527	 3388	 3386	 3462	 3705	 3861	 4071	 4205	 4292	 4354	 4388	 4325	 4187	 4039	 3849	 3646	 3357	 3092	 2686	 2128	 1654	 1332	 1013	763.1	578.2	466.7	941.3	9999.9	9999.9	9999.9	 3304	143.8	101.1	67.46
430.0	590.0	862.2	779.4	 1089	 1212	 1525	 1856	 1992	 2195	 2470	 2581	 2778	 2942	 3194	 3386	 3491	 3493	 3503	 3403	 3414	 3406	 3690	 3818	 3989	 4199	 4276	 4382	 4435	 4377	 4255	 4097	 3948	 3775	 3486	 3198	 2857	 2397	 1879	 1484	 1174	896.9	692.2	521.2	445.0	942.6	9999.9	9999.9	9999.9	 2974	145.2	95.94
435.0	673.2	923.0	926.0	 1111	 1403	 1594	 1749	 1845	 2084	 2430	 2610	 2799	 2947	 3229	 3378	 3538	 3527	 3527	 3397	 3407	 3443	 3557	 3770	 3959	 4137	 4254	 4329	 4386	 4351	 4322	 4147	 3981	 3850	 3607	 3327	 2916	 2611	 2098	 1664	 1332	 1046	827.5	631.5	484.1	423.4	920.3	9999.9	9999.9	9999.9	 2983	140.0
440.0	557.9	747.8	816.5	895.0	 1190	 1437	 1681	 1849	 2242	 2478	 2521	 2714	 2842	 3234	 3368	 3493	 3487	 3523	 3329	 3322	 3305	 3455	 3694	 3854	 4009	 4137	 4229	 4293	 4294	 4245	 4126	 4002	 3892	 3632	 3394	 2996	 2663	 2283	 1824	 1467	 1181	945.4	737.1	575.0	443.7	401.3	921.9	9999.9	9999.9	9999.9	 2651
445.0	701.5	914.6	806.0	944.6	 1182	 1497	 1600	 1777	 2122	 2357	 2456	 2724	 2878	 3098	 3309	 3390	 3516	 3336	 3304	 3184	 3206	 3362	 3536	 3685	 3891	 4016	 4095	 4152	 4195	 4125	 4058	 3930	 3840	 3682	 3439	 3059	 2709	 2343	 1969	 1601	 1289	 1045	843.8	674.1	544.1	434.0	389.2	911.0	9999.9	9999.9	9999.9
450.0	896.6	678.3	716.4	881.4	 1211	 1408	 1606	 1700	 1859	 2219	 2442	 2727	 2774	 3027	 3275	 3401	 3360	 3233	 3205	 3045	 3128	 3166	 3396	 3492	 3661	 3843	 3957	 3969	 4004	 3981	 3946	 3855	 3766	 3637	 3441	 3068	 2680	 2360	 2052	 1723	 1399	 1147	941.1	762.3	629.0	508.3	404.5	366.2	903.6	9999.9	9999.9
455.0	658.1	587.0	647.9	 1005	 1191	 1291	 1527	 1636	 1857	 2159	 2308	 2400	 2699	 2874	 3261	 3302	 3273	 3155	 2962	 2952	 2945	 3012	 3160	 3280	 3500	 3588	 3714	 3745	 3817	 3852	 3793	 3667	 3659	 3497	 3341	 3016	 2703	 2361	 2096	 1771	 1494	 1213	 1029	876.1	696.8	571.9	485.0	383.9	344.9	881.5	9999.9
460.0	520.5	637.8	600.7	882.7	878.1	 1204	 1521	 1563	 1748	 1993	 2243	 2299	 2583	 2828	 2995	 3076	 3151	 3041	 2852	 2764	 2806	 2818	 2978	 3123	 3232	 3377	 3457	 3565	 3605	 3580	 3524	 3507	 3456	 3361	 3173	 2959	 2630	 2295	 2038	 1805	 1547	 1316	 1074	934.7	781.0	649.3	533.1	427.6	355.9	325.2	857.9
465.0	609.5	684.4	812.5	737.7	962.1	 1136	 1380	 1436	 1734	 1974	 2045	 2326	 2405	 2738	 2783	 2998	 3001	 2963	 2835	 2650	 2604	 2686	 2811	 2891	 3061	 3130	 3288	 3328	 3343	 3384	 3334	 3291	 3294	 3196	 3085	 2829	 2543	 2258	 1997	 1747	 1563	 1355	 1135	960.5	816.3	716.5	592.3	484.5	389.7	320.9	298.6
470.0	406.6	616.6	530.2	710.1	834.0	 1048	 1213	 1396	 1533	 1785	 1947	 2110	 2210	 2556	 2648	 2831	 2772	 2755	 2600	 2485	 2441	 2495	 2605	 2739	 2832	 2887	 3001	 3001	 3096	 3090	 3074	 3126	 3067	 2970	 2894	 2700	 2439	 2196	 1915	 1722	 1523	 1369	 1193	997.2	872.6	754.3	626.9	533.6	437.7	357.9	287.9
475.0	482.8	495.0	602.3	584.2	716.9	 1025	 1095	 1320	 1455	 1581	 1841	 1899	 2060	 2420	 2525	 2661	 2692	 2553	 2466	 2313	 2261	 2282	 2406	 2510	 2557	 2647	 2708	 2777	 2839	 2900	 2864	 2852	 2821	 2802	 2693	 2550	 2325	 2079	 1829	 1655	 1475	 1332	 1200	 1023	888.8	782.4	650.9	564.9	464.0	390.3	315.6
480.0	435.5	476.8	441.4	608.4	727.2	878.0	941.3	 1136	 1336	 1528	 1596	 1791	 2020	 2158	 2341	 2553	 2508	 2372	 2278	 2178	 2086	 2133	 2194	 2279	 2388	 2412	 2485	 2575	 2633	 2623	 2630	 2646	 2655	 2611	 2545	 2423	 2208	 1980	 1789	 1603	 1442	 1288	 1186	 1063	921.5	791.2	683.8	597.5	494.6	433.0	352.1
485.0	407.2	348.6	531.0	736.6	675.2	873.8	978.2	 1055	 1241	 1434	 1530	 1649	 1936	 2057	 2247	 2332	 2400	 2276	 2168	 2021	 2012	 1989	 2072	 2166	 2210	 2263	 2318	 2395	 2424	 2446	 2474	 2429	 2427	 2487	 2406	 2263	 2093	 1907	 1747	 1568	 1419	 1264	 1153	 1031	944.7	821.8	721.6	606.6	543.5	454.2	375.9
490.0	378.5	401.1	474.2	647.8	632.9	884.4	924.5	 1111	 1148	 1322	 1507	 1587	 1839	 1951	 2095	 2274	 2302	 2272	 2055	 1962	 1878	 1890	 1950	 2001	 2065	 2087	 2137	 2229	 2265	 2260	 2280	 2299	 2306	 2314	 2277	 2162	 1995	 1839	 1674	 1512	 1357	 1261	 1102	 1021	929.5	829.4	738.7	626.9	558.6	480.8	406.4
495.0	393.2	378.4	493.9	451.8	727.1	736.3	929.0	 1030	 1074	 1179	 1411	 1549	 1655	 1803	 2072	 2141	 2060	 2042	 1915	 1830	 1759	 1752	 1865	 1860	 1950	 1981	 1974	 2046	 2084	 2096	 2104	 2096	 2125	 2153	 2130	 2024	 1885	 1730	 1574	 1433	 1320	 1205	 1103	968.6	906.8	844.5	738.8	642.0	553.0	500.8	425.1
500.0	333.3	381.0	402.7	491.8	617.3	700.7	807.3	871.9	 1097	 1139	 1197	 1374	 1588	 1704	 1866	 1932	 1958	 1911	 1794	 1743	 1654	 1665	 1682	 1713	 1723	 1768	 1806	 1891	 1906	 1936	 1962	 1946	 1970	 1983	 1946	 1869	 1716	 1609	 1482	 1381	 1270	 1153	 1065	949.3	893.8	813.8	751.1	649.1	562.7	503.5	433.1
505.0	256.2	373.7	316.0	427.0	460.0	683.7	744.4	768.8	958.9	 1130	 1119	 1320	 1463	 1576	 1700	 1751	 1806	 1757	 1642	 1611	 1565	 1524	 1566	 1594	 1575	 1644	 1692	 1683	 1749	 1759	 1770	 1762	 1848	 1826	 1771	 1722	 1622	 1454	 1365	 1279	 1198	 1115	 1016	921.1	861.3	779.5	715.8	657.8	572.8	501.3	439.9
510.0	238.7	331.8	307.3	342.7	354.0	724.6	731.2	742.1	860.2	 1013	988.9	 1285	 1310	 1459	 1578	 1650	 1699	 1604	 1563	 1437	 1364	 1371	 1398	 1424	 1463	 1501	 1501	 1526	 1548	 1584	 1585	 1631	 1670	 1641	 1637	 1589	 1449	 1368	 1299	 1194	 1124	 1031	949.6	876.5	796.6	745.5	678.8	623.2	573.9	499.9	444.8
515.0	171.4	213.3	286.3	325.4	377.4	580.5	597.1	679.7	788.7	889.3	985.7	 1073	 1157	 1346	 1445	 1477	 1540	 1528	 1446	 1363	 1329	 1282	 1282	 1296	 1325	 1374	 1378	 1371	 1394	 1433	 1447	 1458	 1487	 1504	 1507	 1433	 1381	 1271	 1189	 1079	 1013	959.8	878.0	819.3	734.9	698.0	649.4	595.7	550.3	502.1	432.7
520.0	263.6	193.9	265.8	412.1	362.0	419.6	498.7	612.5	684.8	800.3	874.7	973.8	976.4	 1159	 1268	 1348	 1344	 1381	 1298	 1208	 1180	 1166	 1133	 1195	 1181	 1204	 1249	 1240	 1265	 1305	 1289	 1293	 1323	 1373	 1327	 1307	 1231	 1144	 1067	997.8	934.7	863.0	794.7	764.8	689.5	660.4	604.2	555.0	528.4	485.5	416.4
525.0	157.1	225.9	239.9	276.2	330.1	391.4	453.5	579.9	646.8	746.0	841.5	883.6	 1014	 1089	 1180	 1253	 1251	 1195	 1158	 1107	 1068	 1056	 1049	 1051	 1101	 1109	 1097	 1124	 1137	 1161	 1166	 1157	 1184	 1243	 1245	 1164	 1107	 1060	969.9	917.4	856.1	802.4	763.2	714.2	643.3	608.2	559.0	513.6	486.9	478.9	424.8
530.0	190.6	193.4	232.2	244.7	269.8	426.8	438.2	448.1	550.4	651.2	691.3	771.2	854.4	930.8	 1052	 1093	 1146	 1112	 1036	994.0	969.2	941.0	952.5	950.9	963.1	987.5	 1001	999.2	 1009	 1060	 1030	 1036	 1090	 1093	 1105	 1067	 1010	951.5	902.0	819.5	770.5	749.5	689.2	660.6	593.9	570.6	531.0	501.9	461.1	422.6	404.8
535.0	190.4	217.1	226.4	185.0	241.1	364.1	385.7	455.2	519.1	627.3	633.8	681.8	744.3	837.2	959.6	 1038	 1033	976.9	933.8	927.0	904.3	860.5	861.7	848.9	871.0	872.1	914.0	899.7	908.4	933.4	946.8	945.7	961.9	985.1	992.3	934.5	891.0	854.9	790.3	743.7	704.0	678.9	634.7	587.9	548.1	516.3	502.6	461.3	421.3	404.1	364.0
540.0	202.8	113.2	224.9	179.9	277.4	342.0	387.2	421.6	424.9	562.3	614.7	641.4	711.0	726.0	899.9	899.3	932.1	907.9	873.2	794.6	801.8	744.4	774.2	777.3	756.3	769.7	780.2	789.0	795.9	826.8	829.1	874.7	867.6	884.1	875.0	856.7	812.7	753.2	736.5	661.9	647.2	593.6	580.1	543.0	511.6	484.9	447.3	424.7	388.6	361.1	332.6
545.0	206.3	165.6	169.4	248.4	250.9	272.3	305.6	394.0	357.7	437.1	538.3	584.0	582.8	758.9	816.2	 1018	847.1	806.8	772.6	711.5	742.1	704.7	680.4	694.0	665.9	701.5	687.6	708.1	725.6	723.3	732.6	744.4	773.7	781.0	779.1	763.8	723.2	683.6	648.1	608.8	575.7	530.7	519.7	499.3	460.0	438.5	413.3	387.3	365.5	333.9	310.1
550.0	148.9	81.53	210.9	194.3	220.8	246.2	278.3	346.8	380.9	404.4	474.1	550.4	567.0	637.9	705.7	 1189	883.6	746.2	688.7	675.3	658.7	638.9	630.0	634.1	610.5	642.0	624.1	658.9	658.6	670.7	672.9	692.9	722.9	697.7	715.9	707.0	649.9	618.0	586.8	559.0	527.8	495.7	490.5	440.3	430.0	408.7	372.2	348.6	342.1	310.7	296.8
