Sample:	'SLABO1-5-5-320
File name:	2H11.FD3
Run Date:	16:59:52, 08/17/2022
Operator:	Administrator
Comment:	'

Instrument
Model:	F-7000 FL Spectrophotometer
Serial Number:	2354-007
ROM Version:	5J14000 06

Instrument Parameters
Measurement type:	3-D Scan
Data mode:	Fluorescence
EX  Start WL:	200.0 nm
EX  End WL:	450.0 nm
EX Sampling Interval:	5.0 nm
EM  Start WL:	280.0 nm
EM  End WL:	550.0 nm
EM Sampling Interval:	5.0 nm
Scan speed:	12000 nm/min
EX Slit:	5.0 nm
EM Slit:	5.0 nm
PMT Voltage:	700 V
Response:	Auto 
Corrected spectra:	Off
Shutter control:	On
Contour interval:	25.000

Peak integration
Integration method:	Rectangular
Sensitivity:	1
Threshold:	1.000

Peaks
No.	ApexEX/EM(nm)	Height(Data)
1	205.0/535.0	154.7
2	210.0/330.0	793.5
3	210.0/475.0	483.6
4	210.0/505.0	309.3
5	210.0/545.0	189.5
6	215.0/510.0	263.4
7	225.0/330.0	 1214
8	225.0/500.0	388.8
9	225.0/515.0	325.7
10	230.0/335.0	 1321
11	230.0/360.0	 1122
12	230.0/380.0	 1072
13	230.0/390.0	993.2
14	230.0/505.0	460.2
15	235.0/385.0	971.8
16	235.0/410.0	 1146
17	240.0/400.0	 1080
18	245.0/465.0	964.2
19	250.0/405.0	 1152
20	250.0/425.0	 1171
21	250.0/435.0	 1167
22	250.0/445.0	 1121
23	255.0/415.0	 1156
24	255.0/440.0	 1099
25	265.0/430.0	 1186
26	270.0/435.0	 1159
27	275.0/305.0	 1026
28	275.0/425.0	 1170
29	280.0/310.0	 1172
30	280.0/340.0	 1234
31	280.0/380.0	 1023
32	280.0/400.0	 1159
33	280.0/415.0	 1132
34	285.0/315.0	 1247
35	290.0/410.0	 1111
36	305.0/340.0	683.9
37	310.0/345.0	637.7
38	315.0/355.0	620.1
39	320.0/360.0	661.7
40	325.0/365.0	729.9
41	325.0/415.0	 1088
42	330.0/370.0	727.4
43	335.0/380.0	770.0
44	335.0/430.0	 1035
45	340.0/385.0	797.8
46	345.0/390.0	798.1
47	350.0/400.0	792.7
48	355.0/405.0	807.1
49	360.0/410.0	811.9
50	365.0/290.0	9.917
51	365.0/415.0	796.5
52	370.0/305.0	13.72
53	375.0/295.0	8.861
54	405.0/295.0	6.599
55	420.0/345.0	9.256
56	420.0/490.0	217.3
57	430.0/340.0	8.459
58	430.0/360.0	9.312
59	435.0/330.0	8.526
60	440.0/315.0	6.528
61	445.0/360.0	8.450
62	445.0/520.0	117.5

Data Points
	200.0	205.0	210.0	215.0	220.0	225.0	230.0	235.0	240.0	245.0	250.0	255.0	260.0	265.0	270.0	275.0	280.0	285.0	290.0	295.0	300.0	305.0	310.0	315.0	320.0	325.0	330.0	335.0	340.0	345.0	350.0	355.0	360.0	365.0	370.0	375.0	380.0	385.0	390.0	395.0	400.0	405.0	410.0	415.0	420.0	425.0	430.0	435.0	440.0	445.0	450.0
280.0	25.22	69.44	45.35	31.85	68.73	40.51	31.77	29.07	15.39	24.88	58.49	78.62	47.70	21.43	18.11	 1769	9999.9	 3692	106.6	16.77	20.93	18.73	15.77	12.77	9.516	10.79	10.23	9.462	7.865	6.134	6.555	8.475	6.471	5.675	7.442	9.506	6.436	4.342	4.763	5.271	4.855	3.179	2.913	3.534	3.036	2.732	2.301	3.054	2.180	1.834	2.432
285.0	178.0	103.1	127.9	135.8	134.2	123.6	98.00	54.72	67.78	64.74	103.4	116.2	197.1	131.2	53.96	167.5	 4317	9999.9	9999.9	723.7	31.93	26.51	20.98	18.72	17.42	11.98	10.71	11.28	9.005	9.540	6.528	6.104	6.451	8.287	6.784	7.046	6.324	5.346	4.966	5.248	3.836	3.397	3.015	3.214	3.618	3.171	3.301	2.664	2.389	2.253	1.947
290.0	248.4	316.6	233.7	269.3	413.4	313.0	226.1	85.41	75.29	121.8	148.0	165.5	191.7	306.5	211.9	130.4	384.0	 9537	9999.9	9999.9	989.4	39.12	24.74	25.80	22.83	15.12	11.67	12.73	9.628	9.634	7.820	8.198	7.774	9.917	8.103	5.176	6.759	4.883	5.294	4.808	5.234	5.960	4.694	2.982	3.855	2.899	3.065	3.351	3.556	2.663	2.770
295.0	629.8	393.2	398.3	369.3	430.8	528.0	418.5	222.5	161.1	155.0	176.3	187.9	205.8	360.6	523.1	339.9	270.5	807.7	9999.9	9999.9	9999.9	 1249	48.54	34.79	29.74	23.21	17.61	15.45	14.67	11.13	10.47	9.972	9.143	7.030	8.708	8.861	6.750	5.011	5.555	6.287	4.863	6.599	5.509	4.010	3.898	2.507	3.763	4.361	3.747	3.519	3.565
300.0	544.9	546.3	447.1	508.2	609.3	600.9	532.9	332.8	191.9	188.2	229.1	227.6	222.1	325.9	628.6	746.4	448.6	367.0	827.6	9999.9	9999.9	9999.9	 1324	63.30	40.90	37.41	28.87	16.95	16.55	14.57	9.888	10.84	9.260	11.17	8.252	7.686	7.858	7.092	6.022	7.101	5.887	5.786	4.588	4.880	4.154	3.732	4.240	5.214	4.934	5.325	5.021
305.0	680.7	586.9	611.7	551.9	719.9	807.0	690.3	470.0	283.7	240.8	300.0	287.9	340.5	377.0	555.9	 1026	899.3	487.9	302.3	803.3	9999.9	9999.9	9999.9	 1536	65.51	49.88	36.64	30.88	19.66	16.33	13.56	14.09	12.55	10.15	13.72	7.333	6.760	8.680	7.217	7.526	7.044	6.473	7.315	6.272	4.867	4.519	5.013	4.324	4.921	6.348	5.934
310.0	830.4	653.3	643.5	617.8	760.8	838.8	732.3	500.9	333.3	291.0	351.1	335.3	406.3	493.7	601.7	814.9	 1172	854.5	373.3	260.0	778.7	9999.9	9999.9	9999.9	 1604	77.35	55.11	46.45	31.62	23.34	18.59	20.22	16.90	13.00	11.61	10.88	8.448	9.160	7.146	6.766	6.713	5.206	6.357	5.497	6.818	5.689	5.652	5.499	5.037	5.611	5.009
315.0	658.3	658.0	575.0	658.4	671.5	846.5	924.9	642.3	407.5	352.1	387.6	396.2	489.2	548.3	673.8	856.1	985.7	 1247	631.7	281.5	216.2	765.6	9999.9	9999.9	9999.9	 1423	79.75	64.99	42.95	34.14	23.35	18.07	18.47	14.69	13.87	12.41	11.03	9.110	7.734	9.227	7.550	7.370	7.261	6.180	6.577	4.836	6.020	4.320	6.528	5.680	5.138
320.0	760.5	635.2	621.4	769.9	809.1	947.8	991.7	659.6	504.4	381.9	406.9	464.4	535.0	630.8	778.7	886.0	958.7	 1144	 1076	441.7	229.4	197.9	769.8	9999.9	9999.9	9999.9	 1390	88.69	71.15	56.64	38.36	23.71	24.02	18.38	14.85	11.01	9.845	10.25	9.306	8.235	8.350	8.093	6.665	6.843	6.007	7.048	5.622	6.149	4.861	7.697	5.785
325.0	613.6	819.6	678.3	708.2	782.1	 1114	 1129	836.3	617.9	460.9	520.8	539.5	586.0	659.9	860.1	984.6	 1062	 1001	 1047	859.1	336.6	200.8	193.4	792.4	9999.9	9999.9	9999.9	 1541	94.29	71.09	53.10	40.88	26.16	19.54	20.21	13.34	12.90	10.53	8.991	9.667	9.117	7.296	6.480	6.686	6.950	6.234	5.789	6.576	6.468	7.798	6.435
330.0	682.9	633.4	793.5	698.1	784.4	 1214	 1135	927.9	619.8	530.3	516.2	569.3	631.5	755.1	922.5	 1090	 1132	 1048	879.8	901.5	676.3	267.6	167.4	182.7	773.0	9999.9	9999.9	9999.9	 1500	108.0	72.30	53.05	41.75	28.10	23.79	16.86	17.22	10.17	10.95	10.56	10.07	7.707	5.834	7.146	6.541	6.823	6.472	8.526	7.769	6.743	7.305
335.0	649.3	664.8	719.9	716.3	863.0	 1203	 1321	968.9	706.1	528.1	581.9	579.7	696.5	782.5	988.4	 1107	 1216	 1085	928.1	692.7	800.6	504.7	213.9	164.5	180.1	785.0	9999.9	9999.9	9999.9	 1606	107.2	79.22	59.98	46.56	29.73	24.12	17.88	13.14	12.28	8.800	8.874	9.563	9.660	7.923	7.467	7.793	7.086	8.520	6.783	6.728	8.783
340.0	555.8	702.5	798.6	850.9	901.9	 1183	 1268	 1052	728.6	566.1	568.2	615.9	630.7	774.0	964.3	 1155	 1234	 1150	926.7	700.2	557.7	683.9	375.5	198.2	169.9	177.3	782.9	9999.9	9999.9	9999.9	 1721	110.8	86.27	53.92	47.39	27.66	24.31	15.70	14.87	11.25	9.782	9.677	7.789	8.165	8.001	7.436	8.459	5.936	7.194	6.018	8.357
345.0	438.2	587.3	588.0	731.6	816.2	 1177	 1212	 1032	779.4	595.5	607.3	608.5	694.4	784.2	938.7	 1095	 1205	 1177	973.6	725.7	529.8	502.2	637.7	319.4	196.1	180.4	191.2	777.3	9999.9	9999.9	9999.9	 1888	122.6	80.98	61.79	48.72	31.16	23.70	17.69	14.50	10.60	8.844	9.100	7.886	9.256	7.140	7.157	6.450	7.229	7.597	7.636
350.0	456.1	575.5	641.5	799.3	860.1	 1115	 1178	985.4	775.4	723.3	643.2	639.6	683.7	785.9	977.9	 1062	 1118	 1138	971.2	732.3	540.4	444.8	561.6	602.2	309.1	197.3	181.1	196.6	787.7	9999.9	9999.9	9999.9	 1932	118.3	84.24	64.41	41.68	31.88	21.23	15.13	12.07	10.34	9.977	8.931	7.949	8.556	8.114	6.414	7.356	7.099	8.065
355.0	495.6	515.5	552.3	650.9	898.6	 1057	 1081	 1005	763.5	722.8	645.1	666.3	693.9	766.8	904.4	 1050	 1110	 1105	953.8	778.1	574.7	464.9	422.5	620.1	553.2	317.3	236.4	199.9	204.7	777.3	9999.9	9999.9	9999.9	 2031	123.1	86.20	61.83	41.90	29.90	21.06	15.26	11.61	10.16	9.075	7.961	7.972	7.944	8.046	7.404	8.313	7.491
360.0	476.0	483.8	630.0	611.3	868.9	946.6	 1122	954.5	838.0	703.3	675.9	715.7	749.9	784.6	889.5	 1005	 1030	 1095	968.6	801.3	643.5	548.9	478.6	468.2	661.7	534.3	312.0	270.2	226.2	217.7	802.1	9999.9	9999.9	9999.9	 1934	117.9	87.87	59.65	40.48	30.04	18.77	13.63	13.82	9.439	8.975	7.878	9.312	7.068	8.378	8.450	7.686
365.0	421.1	397.0	643.1	738.4	796.1	915.8	 1063	942.9	876.4	752.6	664.6	695.4	711.9	850.1	900.4	 1035	 1029	 1051	977.6	818.3	681.6	602.0	534.7	526.3	548.3	729.9	525.9	346.8	270.5	217.2	230.2	791.8	9999.9	9999.9	9999.9	 2127	111.6	83.20	59.66	36.07	28.47	18.14	17.34	11.43	10.27	9.350	7.451	7.750	7.459	7.070	8.549
370.0	510.1	478.3	579.6	584.9	804.5	937.5	 1012	945.2	861.5	789.9	777.0	742.1	750.8	847.5	888.9	 1012	998.1	 1072	960.6	833.3	739.7	661.3	600.6	579.1	554.9	624.3	727.4	483.8	337.2	280.2	211.9	218.2	788.3	9999.9	9999.9	9999.9	 2034	111.5	76.59	49.68	38.45	27.89	18.83	16.10	13.16	11.13	9.677	8.522	7.673	5.632	7.235
375.0	457.3	512.2	504.9	652.2	761.0	913.6	 1007	994.2	890.3	809.6	803.2	730.5	739.9	829.1	952.2	984.8	 1001	 1012	983.6	795.3	726.1	684.6	689.6	651.7	625.1	614.4	689.3	725.0	462.0	352.0	279.0	226.2	204.6	781.0	9999.9	9999.9	9999.9	 2160	109.2	67.85	45.99	35.71	25.12	17.95	13.90	12.76	9.610	8.345	7.374	9.301	7.581
380.0	402.0	440.9	533.8	623.7	693.1	916.3	 1072	911.5	926.8	847.1	803.5	779.8	813.7	839.3	929.5	941.8	 1023	996.3	954.6	868.3	785.2	755.2	731.2	725.4	712.1	660.7	668.1	770.0	700.3	430.3	349.3	278.4	212.1	202.5	789.5	9999.9	9999.9	9999.9	 1887	98.36	72.28	46.33	34.34	23.55	18.58	13.74	13.14	8.601	9.216	9.366	6.924
385.0	417.5	468.4	591.0	547.6	845.0	929.6	925.1	971.8	929.4	949.6	826.2	846.5	833.0	841.2	958.3	 1011	 1003	 1024	933.3	880.0	850.3	814.8	803.3	808.2	778.6	761.4	705.5	702.3	797.8	634.9	418.3	333.6	281.1	222.3	219.4	780.6	9999.9	9999.9	9999.9	 2004	91.44	65.46	43.89	33.23	20.85	15.73	13.99	11.26	9.344	8.780	8.479
390.0	375.8	404.8	506.5	689.4	773.1	852.3	993.2	906.5	924.5	891.1	960.7	838.7	899.6	901.9	879.7	 1039	 1051	 1049	964.9	921.8	857.9	869.7	893.2	858.9	850.9	819.6	788.6	744.5	732.2	798.1	575.2	426.8	324.6	272.7	222.9	203.6	772.9	9999.9	9999.9	9999.9	 1884	91.56	61.46	42.68	30.17	19.86	18.12	13.31	10.77	8.626	8.234
395.0	463.8	551.6	688.1	637.0	846.3	908.9	957.5	 1017	986.7	932.6	980.1	928.4	939.3	921.7	958.7	 1021	 1103	 1070	 1011	985.3	920.0	924.9	927.8	932.7	901.1	905.2	850.2	811.9	746.7	761.5	788.1	542.4	405.6	336.6	279.8	221.4	204.3	769.2	9999.9	9999.9	9999.9	 1918	82.66	60.37	38.88	25.96	22.20	16.89	13.64	10.64	8.912
400.0	453.2	416.5	515.9	677.5	897.6	991.2	 1022	 1063	 1080	 1055	 1012	976.5	954.5	989.5	998.8	 1050	 1159	 1074	 1008	 1002	935.0	935.7	974.2	975.6	968.4	961.6	904.6	877.9	815.0	759.1	792.7	753.7	527.4	430.3	337.4	273.6	200.5	200.9	756.2	9999.9	9999.9	9999.9	 1651	72.74	54.09	38.33	27.18	20.28	15.92	12.65	11.05
405.0	362.4	466.0	497.3	660.5	871.2	 1017	 1038	 1052	 1053	 1025	 1152	964.2	962.5	 1047	 1075	 1089	 1078	 1057	 1054	974.0	992.4	993.0	984.3	 1007	 1021	991.2	986.1	946.8	888.0	818.8	758.2	807.1	699.3	526.1	417.7	328.0	256.9	198.1	188.6	752.1	9999.9	9999.9	9999.9	 1493	73.57	50.22	34.16	24.59	20.27	14.99	12.99
410.0	323.2	398.2	469.5	625.6	937.7	913.1	 1118	 1146	 1036	 1036	 1086	 1024	 1037	 1039	 1123	 1096	 1114	 1068	 1111	 1005	980.0	 1004	996.7	 1011	 1062	 1055	 1020	 1003	917.9	880.4	785.4	779.7	811.9	672.6	511.2	392.4	309.7	237.4	181.4	170.2	741.7	9999.9	9999.9	9999.9	 1370	72.99	48.26	33.98	23.74	18.71	12.95
415.0	393.3	460.4	666.6	683.4	852.9	970.1	 1103	 1088	 1104	 1109	 1082	 1156	 1037	 1106	 1120	 1099	 1132	 1108	 1033	 1028	981.6	 1017	 1042	 1065	 1061	 1088	 1031	 1012	973.0	909.9	824.1	769.6	775.4	796.5	621.8	438.1	370.1	274.4	220.5	176.8	161.0	729.8	9999.9	9999.9	9999.9	 1356	60.93	44.47	28.75	25.68	17.51
420.0	446.9	460.2	634.3	770.1	851.6	933.6	 1031	 1035	 1037	 1153	 1105	 1132	 1054	 1075	 1151	 1140	 1103	 1084	 1028	983.9	980.2	973.9	 1049	 1060	 1065	 1078	 1066	 1026	988.7	929.5	848.7	825.3	760.8	774.9	753.2	551.6	411.2	326.4	254.2	194.8	143.5	157.4	722.1	9999.9	9999.9	9999.9	 1227	60.34	36.20	27.43	22.47
425.0	327.3	529.0	546.4	741.0	828.3	966.1	 1011	 1061	 1070	 1155	 1171	 1113	 1108	 1121	 1160	 1170	 1107	 1052	 1049	959.1	967.1	 1003	992.6	 1024	 1043	 1049	 1032	 1033	984.4	940.7	874.4	828.8	789.4	737.6	760.0	665.1	462.0	365.5	283.5	214.5	172.2	135.5	135.9	708.2	9999.9	9999.9	9999.9	 1076	57.40	38.61	28.54
430.0	460.2	430.2	591.8	647.3	785.9	892.6	942.9	 1070	 1020	 1153	 1128	 1079	 1102	 1186	 1143	 1167	 1078	 1089	 1017	968.6	957.2	947.3	981.7	 1006	 1024	 1018	 1033	 1035	982.1	948.4	874.9	861.8	809.5	753.6	725.8	697.6	571.4	413.0	314.1	241.7	200.8	149.2	111.1	128.2	704.3	9999.9	9999.9	9999.9	957.1	57.72	38.77
435.0	415.5	538.0	500.0	673.2	803.9	798.6	984.7	 1067	 1025	 1134	 1167	 1038	 1005	 1103	 1159	 1132	 1077	 1097	973.6	940.7	915.2	969.8	951.2	980.2	 1009	997.9	 1003	 1013	961.5	944.9	911.1	842.4	826.2	754.6	707.4	661.1	630.1	465.0	342.8	279.2	226.3	175.1	135.6	103.8	120.1	700.2	9999.9	9999.9	9999.9	965.6	53.60
440.0	363.2	457.5	607.2	697.6	733.2	748.4	940.5	951.1	 1001	 1060	 1077	 1099	 1021	 1100	 1117	 1131	 1084	 1020	970.8	911.4	879.3	907.9	926.0	949.1	967.7	970.1	969.4	983.8	942.4	923.6	887.5	863.3	811.0	781.6	710.7	641.1	607.5	556.1	409.8	304.7	250.6	205.6	148.8	120.2	101.7	119.2	696.8	9999.9	9999.9	9999.9	865.7
445.0	287.0	454.6	545.4	598.9	767.3	806.5	890.0	986.1	981.1	 1118	 1121	 1011	 1016	 1094	 1124	 1103	 1112	 1021	972.6	902.8	859.5	855.0	880.1	925.4	928.0	937.0	927.9	945.4	912.7	897.5	861.6	834.7	791.7	783.6	722.9	648.6	564.2	547.4	459.9	341.4	261.5	214.4	168.4	142.0	103.2	91.92	113.5	696.0	9999.9	9999.9	9999.9
450.0	306.6	379.7	517.0	500.2	698.5	819.7	840.8	922.2	921.1	996.3	 1037	991.8	980.0	 1083	 1098	 1073	 1012	951.6	904.0	867.4	819.7	829.0	813.8	876.2	847.9	887.1	880.9	900.7	876.4	869.9	836.5	805.8	788.3	763.3	707.8	631.6	559.1	495.3	493.2	388.4	289.9	234.9	186.7	154.0	126.9	99.91	82.63	111.8	694.9	 9813	9999.9
455.0	271.4	321.2	496.0	609.0	674.2	788.6	743.3	788.3	831.6	975.4	960.3	935.6	920.1	940.9	 1022	 1051	961.8	900.9	894.7	828.4	803.8	772.4	787.0	821.4	834.3	818.6	845.8	831.2	839.5	809.3	794.2	777.0	759.9	743.8	685.4	614.0	542.1	479.2	441.1	430.7	329.9	250.3	205.3	170.4	142.0	113.6	87.46	76.51	104.0	681.9	 9848
460.0	198.0	334.7	487.2	560.6	531.8	671.6	732.8	712.9	772.4	921.9	820.0	875.5	916.1	910.4	 1002	 1002	977.1	903.2	830.1	761.9	721.9	734.1	737.6	739.8	753.1	785.1	783.6	776.4	787.0	763.1	741.8	726.8	712.3	711.3	672.2	611.6	546.2	471.1	410.7	394.3	373.4	278.1	223.5	185.2	147.9	126.9	103.9	82.83	72.13	105.8	677.5
465.0	256.4	346.6	405.0	502.1	552.1	668.7	676.6	723.6	686.9	964.2	816.1	857.2	887.3	890.1	942.1	956.4	892.3	833.7	794.9	734.7	709.2	694.9	695.3	683.1	707.8	720.6	705.9	717.8	717.5	714.2	705.4	690.7	670.5	668.6	639.4	576.5	523.4	457.1	406.6	368.0	356.3	322.9	236.0	188.5	167.0	133.3	113.3	98.32	79.32	70.81	99.12
470.0	339.4	334.2	427.4	433.8	489.9	575.4	572.4	672.0	736.6	821.3	784.8	836.6	790.6	887.5	928.1	897.3	851.3	797.7	751.8	651.9	643.1	636.5	637.6	636.3	650.8	670.0	668.0	683.2	679.5	673.9	638.5	646.9	623.6	624.4	592.5	542.5	509.2	443.2	396.0	347.8	327.7	312.0	263.4	196.9	168.5	146.2	120.9	101.3	87.07	71.60	63.03
475.0	218.7	281.0	483.6	345.5	449.0	578.0	581.1	619.6	640.9	803.3	727.4	721.7	765.6	798.7	837.2	828.2	811.5	746.3	700.1	616.2	589.9	601.3	566.8	601.9	618.9	598.2	610.7	607.5	611.6	605.0	611.3	598.6	590.5	598.0	559.6	516.7	490.6	413.4	368.8	334.1	300.0	285.6	276.4	217.7	180.6	142.0	127.5	110.4	88.65	77.88	65.88
480.0	229.7	281.3	348.9	348.4	437.9	500.0	557.7	634.7	626.3	737.8	683.5	686.2	675.6	709.8	738.6	750.4	730.4	682.4	618.2	593.4	584.1	532.7	525.7	540.9	548.8	550.8	569.9	552.1	560.4	560.3	547.5	561.6	555.6	540.1	516.0	489.5	448.9	410.4	372.1	327.6	289.9	275.9	253.5	241.3	194.1	154.1	130.0	112.0	100.2	81.68	69.22
485.0	246.7	239.2	213.9	340.5	369.8	455.8	496.6	607.8	658.1	695.1	614.7	699.9	663.8	660.5	676.5	757.6	703.7	680.5	607.9	563.8	548.5	516.5	512.8	510.4	498.2	516.2	523.5	512.6	521.7	535.3	529.7	522.2	501.4	504.3	483.7	482.6	430.3	387.2	350.6	330.7	285.5	259.8	237.5	232.5	205.4	162.6	133.8	121.0	102.4	89.77	77.81
490.0	226.7	218.5	272.8	278.5	322.5	382.2	523.1	532.0	572.2	643.0	610.7	655.5	671.7	681.8	685.0	657.9	679.3	621.5	548.3	531.9	517.5	490.8	480.8	476.7	474.7	493.2	488.1	476.3	487.1	481.9	490.7	486.1	486.7	490.4	466.2	453.8	415.7	381.0	342.1	305.4	271.5	248.0	223.9	209.0	217.3	186.4	149.2	118.4	106.7	92.93	75.05
495.0	161.1	265.9	294.6	339.6	366.1	345.8	506.9	474.3	529.0	588.9	588.8	571.1	606.2	627.3	647.9	640.5	605.8	614.0	548.4	499.7	491.6	437.1	433.7	452.8	447.0	446.9	466.0	453.0	457.3	440.0	441.9	451.5	447.3	439.2	441.1	432.2	386.4	360.3	328.4	292.4	264.6	240.3	217.3	210.5	195.8	192.8	159.5	132.1	109.7	101.0	80.13
500.0	157.1	239.4	289.2	216.9	366.1	388.8	347.9	495.7	509.8	565.9	530.9	574.4	605.1	565.5	589.9	603.2	592.0	548.1	530.7	475.9	443.7	406.2	406.2	414.1	403.6	409.9	406.9	423.6	410.0	424.7	417.2	404.8	408.0	425.9	419.6	389.0	354.8	339.1	317.6	282.3	255.1	228.7	216.6	191.8	170.3	179.1	173.5	139.4	112.0	100.3	84.34
505.0	194.3	148.7	309.3	179.4	295.8	322.3	460.2	398.6	417.5	505.0	517.1	506.9	528.0	583.1	591.6	535.0	532.9	526.3	460.5	425.0	353.5	392.0	382.4	387.6	398.5	375.8	383.6	397.5	378.6	372.9	375.8	375.0	389.3	392.2	364.5	353.3	329.5	316.4	292.5	267.7	240.1	216.8	203.1	185.7	174.9	165.3	162.3	150.6	112.3	98.44	86.53
510.0	135.2	210.0	227.2	263.4	242.4	291.7	318.9	338.5	418.0	415.9	482.1	425.2	489.0	517.2	530.6	500.5	510.6	457.7	414.8	387.3	384.2	347.1	338.0	350.0	354.9	332.9	338.0	346.3	340.7	349.9	343.3	353.9	350.2	348.6	338.0	331.1	305.1	273.7	261.8	238.2	240.7	213.1	192.0	179.6	159.8	153.8	144.1	150.0	126.0	101.8	83.07
515.0	168.6	159.0	232.1	234.0	302.4	325.7	305.7	337.0	350.7	377.1	441.6	430.4	452.1	475.6	492.1	478.2	457.9	418.8	381.5	336.3	321.9	330.2	322.0	317.3	308.6	297.2	317.7	308.2	323.2	308.4	299.6	299.7	320.2	311.7	317.8	308.9	279.8	264.0	253.2	225.0	209.6	202.9	179.3	164.2	150.0	139.7	127.8	131.7	128.6	112.3	92.83
520.0	154.4	207.3	161.2	178.0	261.9	262.0	274.2	347.2	335.3	362.4	392.3	361.6	441.8	473.9	455.6	448.6	425.3	385.5	350.0	313.3	288.1	295.1	295.1	270.1	285.1	286.0	278.7	263.3	275.1	290.4	283.7	291.3	288.2	289.0	288.9	281.3	259.9	234.0	235.6	202.6	188.6	189.9	177.5	149.4	145.7	134.2	123.3	118.7	110.7	117.5	93.88
525.0	131.5	149.2	205.6	195.5	219.2	215.0	232.5	292.5	303.2	320.9	349.9	340.3	379.1	410.6	396.6	394.7	373.4	333.6	334.5	300.3	275.4	254.1	252.9	267.3	260.0	252.1	265.1	253.6	250.1	250.7	244.1	256.6	258.1	262.6	264.0	252.3	246.8	207.2	202.1	190.5	182.9	167.8	146.7	144.9	133.6	125.0	111.6	103.0	100.8	106.2	93.76
530.0	161.5	133.0	159.2	187.0	212.8	216.4	219.6	250.7	251.3	277.6	283.2	315.9	351.2	370.7	383.3	372.0	355.3	326.9	315.3	273.5	242.7	232.6	238.3	217.0	232.8	236.2	233.9	220.6	227.6	214.5	233.9	224.8	234.8	234.0	228.5	228.1	207.5	203.9	195.4	168.1	153.9	161.6	140.4	138.7	128.6	113.6	98.82	100.0	96.92	92.59	95.89
535.0	152.5	154.7	129.1	128.7	177.1	167.9	226.7	226.5	252.7	258.1	265.0	292.0	297.4	309.1	331.1	344.7	347.2	291.5	277.3	252.7	221.6	215.5	214.9	200.7	200.5	197.7	202.1	210.0	200.9	196.4	209.4	210.7	206.1	198.2	214.1	200.4	184.6	185.7	170.3	162.7	154.8	138.8	134.0	121.9	106.5	106.4	98.50	93.65	84.30	76.19	80.57
540.0	89.82	136.8	151.7	85.40	148.2	170.0	169.5	208.7	231.7	219.4	230.6	267.8	270.9	282.4	362.0	326.3	294.1	261.8	241.9	234.0	206.1	194.3	197.5	181.7	176.9	174.4	185.1	165.2	168.3	164.3	182.0	186.9	184.9	191.5	182.3	179.5	167.3	150.9	149.2	135.6	130.6	128.0	118.1	115.1	103.3	94.99	93.84	81.98	77.63	78.22	65.24
545.0	126.1	117.2	189.5	167.5	149.8	177.1	188.8	202.3	202.7	228.0	217.9	241.0	236.2	255.0	352.6	421.4	294.6	256.6	239.3	194.5	176.6	169.5	172.8	166.5	164.5	157.4	160.5	155.9	160.8	161.8	161.7	176.4	168.8	156.9	164.3	166.6	152.8	142.0	127.2	124.7	123.1	114.7	102.9	103.1	90.72	86.44	84.52	77.59	71.57	70.97	61.62
550.0	117.8	93.84	93.44	106.4	152.5	158.5	165.1	178.8	156.8	182.7	224.2	200.7	243.1	251.0	279.3	625.6	365.0	230.0	207.6	182.7	173.5	166.9	164.7	160.1	155.2	153.9	143.1	143.1	148.9	146.9	143.7	143.4	148.0	150.4	150.7	150.5	139.8	131.7	112.3	118.7	104.2	100.2	90.20	89.10	83.39	84.39	75.63	68.38	68.34	63.34	62.46
