Sample:	'SLABO1-5-5-320
File name:	2N9.FD3
Run Date:	15:41:11, 08/17/2022
Operator:	Administrator
Comment:	'

Instrument
Model:	F-7000 FL Spectrophotometer
Serial Number:	2354-007
ROM Version:	5J14000 06

Instrument Parameters
Measurement type:	3-D Scan
Data mode:	Fluorescence
EX  Start WL:	200.0 nm
EX  End WL:	450.0 nm
EX Sampling Interval:	5.0 nm
EM  Start WL:	280.0 nm
EM  End WL:	550.0 nm
EM Sampling Interval:	5.0 nm
Scan speed:	12000 nm/min
EX Slit:	5.0 nm
EM Slit:	5.0 nm
PMT Voltage:	700 V
Response:	Auto 
Corrected spectra:	Off
Shutter control:	On
Contour interval:	25.000

Peak integration
Integration method:	Rectangular
Sensitivity:	1
Threshold:	1.000

Peaks
No.	ApexEX/EM(nm)	Height(Data)
1	205.0/465.0	393.6
2	210.0/315.0	813.7
3	210.0/335.0	707.4
4	210.0/395.0	716.1
5	210.0/415.0	566.5
6	210.0/475.0	425.4
7	210.0/515.0	207.0
8	210.0/535.0	174.2
9	215.0/310.0	918.0
10	215.0/530.0	184.3
11	215.0/540.0	171.5
12	220.0/315.0	916.6
13	220.0/460.0	552.1
14	220.0/470.0	510.2
15	225.0/305.0	916.1
16	225.0/340.0	 1004
17	225.0/385.0	932.5
18	225.0/420.0	910.1
19	225.0/445.0	780.4
20	225.0/480.0	478.4
21	230.0/330.0	955.2
22	230.0/365.0	948.6
23	230.0/400.0	931.9
24	235.0/360.0	845.0
25	235.0/385.0	857.5
26	235.0/395.0	886.4
27	235.0/445.0	811.0
28	235.0/490.0	460.6
29	240.0/390.0	836.3
30	240.0/410.0	916.9
31	240.0/425.0	879.2
32	240.0/455.0	767.1
33	240.0/530.0	243.4
34	245.0/415.0	901.4
35	245.0/435.0	891.0
36	250.0/425.0	874.8
37	250.0/445.0	884.9
38	255.0/410.0	883.3
39	255.0/420.0	908.1
40	255.0/460.0	793.7
41	260.0/425.0	910.4
42	265.0/400.0	862.3
43	265.0/415.0	922.1
44	265.0/450.0	915.5
45	275.0/305.0	805.0
46	275.0/420.0	935.2
47	275.0/435.0	994.1
48	275.0/490.0	592.1
49	280.0/310.0	984.4
50	280.0/355.0	930.9
51	280.0/375.0	900.3
52	280.0/390.0	916.4
53	285.0/315.0	976.3
54	290.0/320.0	882.6
55	300.0/335.0	711.1
56	305.0/340.0	656.1
57	310.0/345.0	648.4
58	315.0/350.0	615.3
59	315.0/410.0	832.8
60	320.0/360.0	678.8
61	320.0/405.0	840.2
62	320.0/420.0	843.1
63	325.0/365.0	702.2
64	325.0/435.0	801.0
65	330.0/370.0	693.6
66	330.0/410.0	859.6
67	330.0/420.0	842.2
68	335.0/375.0	688.9
69	340.0/385.0	720.3
70	345.0/390.0	706.8
71	350.0/395.0	695.7
72	355.0/405.0	677.5
73	360.0/410.0	703.2
74	365.0/290.0	11.22
75	365.0/420.0	705.5
76	370.0/305.0	14.85
77	370.0/425.0	676.3
78	375.0/310.0	13.08
79	380.0/315.0	12.88
80	405.0/305.0	8.349
81	405.0/340.0	12.07
82	410.0/335.0	10.90
83	425.0/495.0	159.9
84	435.0/505.0	126.2

Data Points
	200.0	205.0	210.0	215.0	220.0	225.0	230.0	235.0	240.0	245.0	250.0	255.0	260.0	265.0	270.0	275.0	280.0	285.0	290.0	295.0	300.0	305.0	310.0	315.0	320.0	325.0	330.0	335.0	340.0	345.0	350.0	355.0	360.0	365.0	370.0	375.0	380.0	385.0	390.0	395.0	400.0	405.0	410.0	415.0	420.0	425.0	430.0	435.0	440.0	445.0	450.0
280.0	87.15	49.71	49.62	60.50	56.57	76.54	39.85	20.10	20.86	43.53	74.78	93.97	66.70	29.23	21.51	 2720	9999.9	 5140	132.1	27.30	23.01	18.34	16.49	14.74	12.85	10.09	8.384	6.741	6.435	7.934	7.123	7.479	4.652	7.208	6.840	5.308	5.690	5.202	3.406	3.993	4.134	2.578	3.433	2.181	2.279	2.554	1.652	1.858	2.136	1.162	1.844
285.0	204.8	158.3	159.6	142.2	190.6	187.8	139.5	69.31	74.74	108.2	168.0	162.2	222.7	121.5	54.70	218.5	 6080	9999.9	9999.9	924.7	40.27	30.53	22.37	19.78	18.39	14.11	17.18	8.337	11.91	8.296	6.842	7.610	7.692	8.386	7.508	4.435	6.620	5.430	4.244	4.488	2.811	3.853	4.458	2.939	2.157	3.512	2.497	2.472	1.894	1.998	1.610
290.0	466.1	291.5	309.4	297.8	456.8	403.9	275.3	179.2	89.58	145.6	210.8	197.8	210.9	309.5	174.7	146.3	494.4	9999.9	9999.9	9999.9	 1147	54.66	34.93	35.28	23.04	21.08	15.99	12.93	10.07	9.113	11.68	8.360	9.698	11.22	7.577	6.827	8.040	6.256	6.140	5.362	5.430	4.521	3.286	3.404	3.612	3.150	3.503	3.007	4.274	3.130	2.558
295.0	712.3	563.1	512.1	527.0	623.4	592.4	479.1	261.9	142.8	233.6	241.7	243.6	236.7	371.0	465.4	266.0	207.0	785.4	9999.9	9999.9	9999.9	 1431	62.38	46.85	42.28	30.48	22.37	14.94	17.11	12.07	10.62	11.53	11.13	8.302	9.548	8.512	7.074	6.551	6.160	7.082	5.626	5.862	5.356	4.136	4.144	3.285	4.663	3.974	3.713	3.989	4.396
300.0	889.0	720.4	599.1	669.8	732.3	697.2	581.7	338.6	198.4	208.7	267.6	255.0	288.9	303.0	580.7	633.6	332.2	277.2	797.8	9999.9	9999.9	9999.9	 1496	75.09	64.72	38.88	31.38	26.86	21.08	17.32	13.75	13.95	11.60	12.82	11.84	10.73	7.405	7.310	9.118	7.599	5.295	7.217	6.112	6.261	5.198	5.354	3.838	4.891	4.421	4.283	3.761
305.0	861.2	821.6	660.3	643.5	852.5	916.1	647.4	341.6	282.8	254.5	263.5	272.0	312.5	363.9	453.9	805.0	638.9	339.3	251.3	784.9	9999.9	9999.9	9999.9	 1680	79.63	64.94	49.27	38.70	23.54	20.04	16.75	15.40	14.98	13.59	14.85	9.362	9.008	9.348	8.569	7.730	5.958	8.349	6.683	5.079	5.126	5.426	5.651	4.957	4.805	6.490	4.035
310.0	789.4	759.2	702.2	918.0	817.7	914.1	656.4	408.3	314.0	294.1	290.0	329.2	366.6	381.9	455.2	599.5	984.4	572.4	280.5	226.0	781.6	9999.9	9999.9	9999.9	 1729	91.09	69.74	55.89	38.57	29.29	21.91	18.16	14.87	14.92	11.27	13.08	11.42	9.870	10.75	9.348	6.930	6.795	6.306	6.448	5.875	5.076	6.691	6.392	5.966	6.195	4.431
315.0	766.3	790.8	813.7	730.9	916.6	821.1	776.2	489.6	347.7	302.9	315.6	335.2	355.5	411.5	482.9	586.6	768.8	976.3	428.2	225.4	201.9	782.7	9999.9	9999.9	9999.9	 1514	99.34	71.55	60.88	41.45	25.87	23.20	19.14	19.06	13.67	10.59	12.88	10.58	8.485	9.650	9.089	7.731	8.136	7.374	5.374	6.185	6.747	5.503	5.286	6.198	6.405
320.0	654.0	707.6	708.7	736.5	753.1	785.3	698.3	567.2	359.5	338.4	360.9	357.0	412.8	480.7	553.2	579.5	678.6	776.9	882.6	365.5	186.7	195.5	799.4	9999.9	9999.9	9999.9	 1515	108.7	79.83	60.59	46.79	31.79	23.17	22.56	16.76	14.29	11.34	12.68	9.748	8.848	6.889	7.417	7.520	7.064	5.945	6.944	6.855	5.828	5.171	6.638	5.108
325.0	761.5	752.8	645.3	772.5	832.2	860.5	902.9	571.3	409.0	360.8	397.5	417.4	432.9	491.4	571.7	718.9	733.4	679.4	818.0	735.2	268.1	177.4	191.7	800.8	9999.9	9999.9	9999.9	 1620	113.5	83.05	63.01	44.52	27.95	27.08	21.06	18.52	15.86	13.70	10.63	8.931	8.210	8.590	7.017	7.542	6.929	7.289	5.949	4.600	5.681	6.829	5.648
330.0	601.1	639.3	631.7	784.2	825.0	804.5	955.2	724.9	481.9	429.8	397.7	428.3	455.2	521.5	648.9	798.6	870.9	711.0	627.0	734.2	577.4	225.8	171.8	186.4	791.2	9999.9	9999.9	9999.9	 1580	113.1	87.97	59.09	46.81	34.01	22.40	17.81	16.56	13.53	12.05	10.55	8.793	7.684	8.643	7.791	7.607	6.428	6.350	5.979	5.912	7.058	7.471
335.0	578.0	569.7	707.4	622.4	809.5	967.0	929.0	740.9	578.5	385.9	413.0	435.3	495.9	540.9	622.5	824.7	865.7	741.8	603.8	535.8	711.1	444.4	199.5	170.7	184.6	798.7	9999.9	9999.9	9999.9	 1660	119.8	95.61	66.53	48.35	34.68	22.69	18.79	17.86	10.57	11.99	9.322	8.725	10.90	8.628	6.333	6.653	6.586	7.068	4.605	5.800	5.249
340.0	473.1	573.8	643.2	730.5	953.4	 1004	962.1	743.8	605.5	457.8	448.5	476.1	461.2	585.1	671.2	863.0	878.5	813.1	654.8	506.4	460.5	656.1	385.2	191.2	154.1	187.5	797.6	9999.9	9999.9	9999.9	 1844	123.6	91.11	64.68	48.17	34.90	23.05	17.89	13.61	14.53	10.30	12.07	9.264	7.629	6.984	7.416	7.164	6.063	5.683	6.709	7.568
345.0	386.3	659.8	507.3	580.8	771.2	993.8	964.4	789.7	566.4	497.6	415.2	471.3	493.6	596.6	681.9	800.4	903.0	802.1	696.8	566.1	417.5	480.8	648.4	320.0	186.6	165.6	197.5	785.7	9999.9	9999.9	9999.9	 2015	125.8	95.06	68.59	47.73	31.79	24.06	17.80	13.19	11.07	9.910	8.917	9.303	7.636	7.481	7.313	6.693	7.398	6.437	6.826
350.0	482.6	485.6	498.5	823.9	836.4	922.4	926.0	791.0	663.9	565.6	518.3	545.2	575.3	638.2	694.8	807.2	895.7	848.6	731.1	574.8	450.1	402.2	502.3	615.3	299.4	198.0	181.5	202.9	799.4	9999.9	9999.9	9999.9	 2033	128.9	90.67	62.26	47.57	26.46	21.66	16.22	14.44	10.19	11.17	7.325	7.853	8.130	6.728	7.618	6.357	6.842	6.489
355.0	395.5	468.3	500.2	664.4	782.7	866.9	890.8	771.5	679.0	572.8	533.9	536.2	573.5	633.5	695.4	838.1	930.9	869.3	765.1	632.5	515.4	444.3	424.5	581.5	569.3	294.2	230.6	198.8	217.8	787.6	9999.9	9999.9	9999.9	 2112	127.3	93.85	68.23	45.40	29.11	20.53	17.35	13.89	9.667	9.984	8.416	8.361	8.130	7.164	7.466	8.147	7.041
360.0	353.2	500.8	527.1	670.0	794.4	876.0	808.4	845.0	758.1	585.2	605.7	572.6	563.1	619.1	697.8	837.3	898.0	851.6	772.1	657.8	565.7	498.4	451.6	465.9	678.8	520.3	303.8	248.1	201.7	203.3	802.2	9999.9	9999.9	9999.9	 1957	127.3	88.32	66.19	42.10	26.12	19.32	16.30	12.13	10.07	8.568	8.656	8.507	7.393	6.216	7.428	7.327
365.0	410.2	517.1	515.6	695.3	708.7	799.3	948.6	808.7	726.2	674.9	632.2	574.5	620.8	688.0	765.5	799.8	880.5	844.1	766.8	710.5	619.5	556.6	534.2	493.0	532.2	702.2	496.6	338.2	263.0	207.3	209.5	783.5	9999.9	9999.9	9999.9	 2147	119.3	82.09	56.51	36.56	26.52	18.77	15.83	11.56	9.648	7.466	6.630	8.128	8.096	6.918	6.549
370.0	448.5	438.5	602.2	569.7	824.3	854.4	938.6	770.7	733.9	687.4	638.3	622.8	656.3	679.5	746.3	794.5	896.4	832.3	815.4	718.2	647.9	601.1	590.7	552.5	523.0	578.0	693.6	456.9	312.9	255.8	206.3	204.0	782.9	9999.9	9999.9	9999.9	 2053	112.9	78.44	55.77	35.92	27.02	16.81	12.26	11.76	8.711	9.420	8.747	6.641	8.109	8.122
375.0	479.6	438.4	654.8	708.6	760.7	862.7	863.8	826.2	768.0	725.5	720.0	697.3	674.1	683.5	750.6	841.5	900.3	850.7	803.4	731.9	664.3	665.3	625.6	595.3	593.0	572.0	643.7	688.9	423.4	323.6	259.8	194.1	188.2	786.8	9999.9	9999.9	9999.9	 2239	104.2	71.44	45.57	36.02	22.68	16.69	12.94	9.363	9.024	8.005	8.447	8.466	7.483
380.0	340.2	522.1	558.7	633.0	653.3	831.5	877.4	781.1	789.4	782.3	764.0	715.3	687.7	711.7	777.3	859.9	898.9	839.4	781.8	757.2	713.6	696.7	676.8	645.8	646.3	621.3	605.5	685.0	620.4	395.2	294.5	252.9	202.4	198.9	787.9	9999.9	9999.9	9999.9	 1926	98.35	67.20	48.40	31.39	23.46	16.73	11.42	8.333	10.14	7.024	7.598	7.096
385.0	493.8	449.2	477.6	607.3	715.7	932.5	817.9	857.5	789.6	770.2	726.9	706.7	717.6	713.6	802.1	823.2	868.8	802.6	824.7	762.2	720.4	720.9	734.6	724.7	703.3	654.9	620.4	621.4	720.3	576.4	379.5	306.3	226.6	186.0	192.4	768.8	9999.9	9999.9	9999.9	 1965	92.23	61.80	46.94	28.65	19.39	14.46	12.42	9.075	8.825	8.374	7.050
390.0	393.5	480.8	578.4	624.9	806.7	913.6	850.5	808.6	836.3	796.3	781.9	744.4	741.1	736.6	822.7	821.6	916.4	867.1	810.4	752.7	749.9	746.7	739.6	743.1	751.4	724.8	677.3	642.5	634.6	706.8	513.7	360.8	293.9	238.7	188.1	188.8	761.5	9999.9	9999.9	9999.9	 1869	86.49	56.05	41.92	28.02	19.85	14.96	11.33	11.43	9.355	7.601
395.0	327.8	409.8	716.1	535.7	631.3	796.4	857.9	886.4	793.6	836.3	822.3	743.4	790.9	742.1	832.8	887.8	888.8	849.9	833.2	773.1	775.3	743.5	759.7	752.6	785.9	765.7	725.5	701.1	643.0	661.4	695.7	501.1	365.6	296.5	243.0	193.1	192.7	752.9	9999.9	9999.9	9999.9	 1910	77.24	58.71	36.43	26.53	18.33	16.07	11.27	10.28	7.956
400.0	384.3	535.1	668.1	605.3	769.3	900.9	931.9	835.8	801.7	838.9	808.2	813.8	783.6	862.3	790.0	868.3	893.8	890.8	822.1	797.3	765.2	751.2	787.1	769.8	804.1	796.7	774.9	732.1	699.8	639.4	692.9	655.7	461.5	365.9	297.3	239.5	197.2	168.5	741.9	9999.9	9999.9	9999.9	 1664	76.09	52.14	34.09	27.17	20.41	14.11	12.16	9.225
405.0	317.6	410.2	523.2	627.3	781.4	859.0	812.2	850.0	836.7	867.1	852.0	853.0	825.9	829.0	841.2	850.6	870.1	880.9	789.7	795.3	750.4	781.2	790.5	827.0	840.2	815.4	792.9	775.1	754.8	675.0	637.8	677.5	616.7	448.6	366.0	280.7	222.6	168.7	169.1	727.8	9999.9	9999.9	9999.9	 1466	69.50	48.63	33.74	23.84	16.78	14.71	10.19
410.0	388.0	514.4	500.4	630.0	677.6	685.0	794.0	888.3	916.9	888.9	858.4	883.3	826.9	809.5	843.3	893.2	883.1	854.4	787.6	788.9	770.0	796.8	806.0	832.8	802.7	827.5	859.6	810.8	761.8	718.5	667.6	644.1	703.2	582.4	419.9	330.7	259.0	201.5	153.6	156.0	731.7	9999.9	9999.9	9999.9	 1370	70.10	42.36	29.52	21.20	17.66	12.33
415.0	320.0	452.5	566.5	488.2	756.7	805.2	786.1	823.6	881.1	901.4	836.0	839.4	845.8	922.1	910.8	872.5	881.0	864.9	831.1	786.4	753.9	763.5	795.2	795.8	838.1	818.8	833.7	831.6	787.6	743.4	713.4	664.5	678.8	705.2	536.9	375.9	303.8	228.9	188.0	136.9	145.0	724.0	9999.9	9999.9	9999.9	 1361	62.99	42.46	27.29	21.59	15.21
420.0	306.3	453.2	481.4	625.9	745.9	910.1	895.5	847.2	870.9	896.3	873.8	908.1	868.9	842.1	898.0	935.2	932.2	889.6	838.7	784.4	730.4	763.7	769.8	801.9	843.1	833.3	842.2	833.2	798.1	776.7	742.4	670.4	665.6	705.5	658.7	459.6	344.6	259.8	212.3	157.7	120.4	136.6	712.7	9999.9	9999.9	9999.9	 1189	58.81	36.43	27.69	21.24
425.0	305.6	361.9	436.4	619.0	723.4	784.8	826.1	788.3	879.2	862.7	874.8	864.7	910.4	900.2	899.3	875.1	920.9	885.1	831.3	776.5	705.6	734.9	767.0	758.6	778.8	796.9	840.9	827.7	827.5	771.0	735.4	707.1	664.5	643.8	676.3	563.0	402.1	309.1	237.9	186.9	135.0	112.4	122.8	702.6	9999.9	9999.9	9999.9	 1017	50.93	37.17	26.14
430.0	296.4	365.8	498.6	535.3	735.5	750.3	796.0	849.2	839.0	869.8	847.6	830.5	897.6	849.4	924.9	939.2	916.3	851.1	787.1	731.6	720.2	729.7	755.8	753.9	769.1	797.6	823.0	804.7	813.0	796.9	765.4	734.7	682.4	647.4	620.0	621.8	493.7	334.5	261.5	215.7	159.9	123.3	92.44	123.8	692.1	 9958	9999.9	9999.9	915.7	49.86	34.58
435.0	298.1	306.2	450.0	570.0	700.2	753.7	758.0	792.2	857.6	891.0	888.3	858.4	878.9	902.2	892.5	994.1	945.3	876.0	787.1	720.4	687.2	688.1	698.7	734.5	771.0	801.0	776.0	784.7	793.3	795.0	758.6	740.9	701.0	666.2	600.5	575.8	557.2	415.2	302.4	226.8	173.4	142.1	108.8	86.81	112.7	687.2	 9734	9999.9	9999.9	877.0	45.75
440.0	276.6	321.2	423.9	544.5	596.4	678.5	777.6	761.4	777.0	883.8	863.5	823.3	891.5	872.7	957.9	966.7	903.9	831.6	764.3	680.4	664.2	690.2	685.6	713.3	724.9	740.9	789.5	774.9	764.9	753.7	731.8	730.5	698.1	678.1	607.8	564.8	525.4	484.7	342.2	249.7	204.0	157.4	120.1	93.80	82.28	105.5	665.5	 9513	9999.9	9999.9	797.8
445.0	221.0	315.7	413.2	528.8	570.9	780.4	626.0	811.0	764.1	848.5	884.9	825.6	898.6	912.0	909.5	974.5	880.0	829.6	721.1	681.7	655.4	648.0	633.1	694.3	693.0	706.6	735.2	748.0	737.5	744.8	729.6	726.3	698.1	663.9	625.3	550.7	480.7	474.0	424.5	287.1	219.4	178.2	146.6	106.2	85.72	74.69	102.2	654.0	 9694	9999.9	9999.9
450.0	312.6	270.1	525.2	612.0	579.4	679.1	776.2	667.1	755.7	832.5	814.6	799.6	839.3	915.5	912.1	898.3	847.1	782.5	706.4	669.0	619.4	603.8	604.9	611.2	656.5	681.2	698.4	680.0	697.5	715.0	704.5	713.7	659.2	657.7	624.3	549.5	484.5	429.7	424.4	343.4	235.8	188.9	158.8	124.8	97.23	82.03	71.28	98.98	659.0	 9108	9999.9
455.0	257.1	359.6	403.4	466.2	504.3	637.6	599.4	701.2	767.1	713.7	779.1	768.3	765.8	830.5	840.6	835.9	812.3	745.3	636.2	607.7	568.2	583.4	570.0	604.7	622.2	626.0	651.0	661.9	675.8	659.7	658.6	661.0	665.5	630.9	591.6	532.2	468.7	405.7	372.8	357.0	280.0	199.4	160.1	129.8	113.7	93.44	74.14	67.89	97.63	624.8	 8909
460.0	198.6	306.1	341.0	451.9	552.1	492.8	593.6	665.9	650.2	721.1	773.7	793.7	735.1	775.9	822.5	823.8	774.2	703.5	649.4	585.7	563.2	560.2	545.1	570.4	566.5	581.8	595.9	606.1	639.1	636.9	595.6	634.3	622.5	603.8	580.0	516.8	459.5	401.0	348.1	339.1	318.7	232.2	179.1	149.5	123.9	102.8	83.44	66.65	59.71	89.89	604.2
465.0	305.1	393.6	380.3	357.3	468.3	528.6	492.3	554.7	582.9	662.1	692.9	692.1	748.5	753.1	776.0	782.4	749.6	665.9	597.4	544.0	514.4	518.6	509.0	514.9	520.5	540.1	547.4	578.0	569.2	579.7	560.6	587.1	575.6	573.7	554.3	495.5	445.2	389.7	338.8	305.1	302.0	274.0	193.3	150.6	137.4	106.6	89.66	74.52	63.78	58.20	84.70
470.0	217.7	269.3	320.5	409.0	510.2	423.9	526.5	538.9	566.3	623.6	650.4	662.0	667.5	682.5	740.9	761.8	694.9	668.6	604.2	504.6	507.1	477.3	461.9	482.8	491.5	508.9	519.5	515.6	539.9	542.3	526.5	538.4	540.5	514.9	504.8	472.0	416.4	365.2	333.0	286.8	262.4	269.1	223.0	165.8	134.4	119.0	99.03	83.16	71.59	57.38	49.94
475.0	173.2	282.4	425.4	282.7	353.4	450.9	401.3	483.3	520.5	565.0	564.6	600.8	659.4	696.0	655.0	673.2	667.4	601.4	530.6	471.6	452.8	452.7	435.9	441.2	435.5	446.3	476.7	477.1	485.8	478.4	479.4	492.8	484.0	484.0	481.2	440.6	393.5	343.7	317.8	273.9	245.4	228.6	231.0	189.6	146.4	115.7	101.9	87.39	74.76	59.54	51.88
480.0	146.3	275.1	287.7	346.1	372.8	478.4	462.3	465.4	469.0	539.6	522.5	559.8	622.7	643.8	604.5	602.6	625.3	521.7	495.6	458.3	412.9	408.0	400.2	393.1	417.9	415.4	421.4	441.5	427.2	442.6	443.9	448.9	446.7	445.5	444.0	413.4	376.1	337.0	301.7	268.5	236.2	217.7	213.1	206.5	157.5	120.5	96.48	87.60	75.25	62.72	55.20
485.0	204.5	170.7	231.0	324.6	358.5	350.5	366.6	399.7	475.3	516.0	493.0	505.4	554.2	585.3	572.5	579.0	555.2	521.7	445.6	396.8	389.8	403.3	373.3	378.1	374.0	377.6	388.0	402.5	411.7	402.6	412.6	419.6	429.6	422.0	413.4	387.2	358.8	323.1	283.7	254.7	237.9	202.6	187.3	194.2	178.2	119.0	108.5	91.29	75.67	70.16	60.23
490.0	205.2	177.5	226.6	201.0	341.7	348.3	350.2	460.6	436.1	448.9	508.6	508.6	528.1	547.7	539.7	592.1	516.8	490.6	454.5	400.3	378.9	337.3	339.3	334.0	348.9	355.3	374.9	359.4	373.0	380.4	375.1	382.9	390.5	388.4	383.6	371.9	344.8	297.0	278.4	255.6	232.0	198.3	182.5	171.5	175.2	148.1	115.9	93.38	80.43	72.01	62.67
495.0	164.9	211.0	205.0	257.6	329.1	337.9	294.4	407.7	418.5	443.2	433.5	471.8	491.5	506.1	518.1	537.0	514.9	448.4	405.7	380.7	328.2	344.1	319.1	319.7	310.6	322.0	329.1	327.5	347.3	340.4	362.1	366.5	370.0	361.3	360.7	338.8	314.3	284.4	263.3	239.4	220.0	189.4	170.3	159.5	156.5	159.9	123.6	96.79	83.19	73.11	66.71
500.0	164.7	181.2	229.9	256.6	277.9	301.4	326.3	336.8	370.0	375.0	435.2	439.4	455.1	496.3	487.0	460.0	425.1	416.5	365.3	363.9	331.9	310.8	298.4	303.3	298.4	308.7	314.0	308.8	316.0	308.0	306.7	323.9	335.6	339.8	321.7	312.2	290.3	273.7	248.7	227.2	212.3	187.4	169.0	151.5	144.3	147.7	143.6	111.0	86.88	73.17	65.76
505.0	211.8	129.5	217.2	185.4	239.5	306.7	299.8	283.2	329.9	396.2	388.5	379.0	444.1	450.4	458.5	436.6	434.6	409.8	345.9	334.8	297.6	284.5	262.5	274.2	277.8	269.2	286.3	279.6	286.8	274.6	297.1	288.8	294.4	314.7	301.7	286.7	263.3	254.6	223.0	200.6	184.4	172.4	164.7	142.9	137.0	125.7	122.1	126.2	89.69	76.21	70.71
510.0	135.7	128.3	132.7	160.7	147.4	285.2	270.0	305.0	324.2	283.1	336.6	386.3	359.9	401.1	421.3	408.6	386.4	358.1	334.1	287.6	274.3	255.0	254.6	253.7	247.2	242.0	243.1	247.3	255.2	257.4	264.9	260.6	267.9	284.1	271.0	276.3	235.0	225.4	212.3	200.0	181.5	165.9	153.9	141.8	130.1	113.5	111.1	115.9	111.3	78.09	65.41
515.0	53.64	133.4	207.0	142.2	186.5	213.9	214.1	264.9	287.7	275.9	318.9	333.8	311.3	408.1	370.4	403.1	356.1	345.1	296.3	277.1	248.1	241.5	222.9	232.0	218.6	226.5	215.4	221.5	222.7	230.5	248.0	240.0	252.1	238.6	246.2	234.2	220.0	210.7	195.7	181.0	169.0	157.8	145.2	133.3	118.3	101.7	99.62	103.5	104.0	83.57	70.04
520.0	108.0	79.01	157.4	151.7	167.1	215.2	210.5	237.2	262.9	247.8	289.8	253.7	337.9	332.0	360.6	335.8	331.6	293.5	253.7	246.9	224.6	209.9	206.1	204.6	203.0	200.1	199.4	214.6	206.8	207.7	213.2	213.2	212.6	231.7	227.4	214.8	190.8	188.3	174.3	163.0	146.4	135.9	135.8	115.2	111.1	101.2	89.18	88.48	99.07	94.63	73.52
525.0	103.4	93.64	164.1	153.4	146.4	157.3	208.5	189.7	219.0	266.8	268.5	257.9	288.1	330.9	298.5	292.4	316.6	276.6	235.8	230.4	211.0	206.4	181.4	189.5	180.9	186.4	180.4	173.9	180.8	186.4	195.3	189.5	194.8	201.4	189.4	197.0	177.9	168.9	155.8	147.8	139.7	129.8	117.8	112.0	98.82	95.83	84.49	78.01	77.97	82.63	73.65
530.0	101.3	126.6	102.0	184.3	128.6	170.3	197.1	229.8	243.4	203.5	239.6	218.9	237.5	270.6	294.2	290.9	260.2	247.8	229.5	215.0	204.9	175.2	175.8	169.6	161.8	175.8	158.0	161.0	158.5	159.4	172.5	168.2	172.6	176.4	180.7	174.6	157.8	144.2	140.0	132.7	122.4	118.3	108.0	100.9	91.29	87.51	80.49	75.47	71.04	70.72	76.94
535.0	87.13	101.5	174.2	147.6	124.0	151.7	166.4	170.6	161.1	194.6	213.4	211.5	217.6	235.3	287.2	261.5	249.4	222.9	204.4	192.4	169.6	167.0	168.2	158.6	154.0	154.5	149.3	143.3	153.6	146.3	151.3	149.8	146.5	155.3	157.5	150.3	141.8	139.8	128.0	118.3	111.5	104.8	94.36	87.71	84.89	79.34	77.85	69.95	64.03	58.23	66.60
540.0	55.17	112.7	115.5	171.5	136.8	153.0	153.2	155.4	163.7	182.6	195.5	190.6	194.9	230.1	298.6	273.4	239.2	214.3	166.4	187.7	155.4	138.8	150.3	144.6	143.7	128.6	135.8	139.9	133.8	132.3	127.7	146.1	137.6	134.5	135.7	135.8	119.3	116.4	112.8	97.79	99.06	92.01	88.75	84.37	75.46	69.84	68.36	64.66	59.99	56.62	53.65
545.0	81.20	96.38	103.6	78.26	82.76	133.7	98.05	134.8	149.6	135.7	205.4	146.5	184.5	198.1	297.8	435.7	223.7	184.5	169.9	162.8	144.8	129.6	129.4	124.5	125.7	118.7	122.8	120.1	122.7	116.3	119.4	120.3	112.6	121.9	120.5	122.7	113.8	109.1	106.2	91.26	87.62	88.95	79.98	72.74	72.55	62.54	64.83	58.44	59.02	54.34	47.09
550.0	61.53	53.57	56.23	92.36	122.7	96.93	102.7	126.5	128.3	165.3	147.3	174.2	169.6	157.3	240.1	719.1	339.1	180.1	159.6	143.6	131.9	116.2	119.0	121.7	125.1	114.7	116.9	112.6	112.9	108.4	115.9	109.7	107.6	114.7	113.7	105.6	112.1	103.4	89.07	84.36	80.52	80.52	73.99	69.66	68.50	66.71	60.19	54.09	50.98	48.67	44.30
