Sample:	'SLABO1-5-5-320
File name:	2P12.FD3
Run Date:	17:21:11, 08/17/2022
Operator:	Administrator
Comment:	'

Instrument
Model:	F-7000 FL Spectrophotometer
Serial Number:	2354-007
ROM Version:	5J14000 06

Instrument Parameters
Measurement type:	3-D Scan
Data mode:	Fluorescence
EX  Start WL:	200.0 nm
EX  End WL:	450.0 nm
EX Sampling Interval:	5.0 nm
EM  Start WL:	280.0 nm
EM  End WL:	550.0 nm
EM Sampling Interval:	5.0 nm
Scan speed:	12000 nm/min
EX Slit:	5.0 nm
EM Slit:	5.0 nm
PMT Voltage:	700 V
Response:	Auto 
Corrected spectra:	Off
Shutter control:	On
Contour interval:	25.000

Peak integration
Integration method:	Rectangular
Sensitivity:	1
Threshold:	1.000

Peaks
No.	ApexEX/EM(nm)	Height(Data)
1	205.0/325.0	936.9
2	205.0/340.0	862.9
3	205.0/465.0	669.5
4	205.0/480.0	534.9
5	205.0/490.0	388.7
6	210.0/335.0	931.5
7	210.0/520.0	278.2
8	210.0/530.0	260.7
9	215.0/320.0	960.8
10	215.0/350.0	932.6
11	215.0/390.0	982.1
12	215.0/500.0	410.3
13	220.0/310.0	886.6
14	220.0/360.0	910.9
15	220.0/380.0	 1027
16	220.0/465.0	724.9
17	220.0/525.0	245.1
18	225.0/315.0	807.6
19	225.0/330.0	 1053
20	225.0/355.0	937.1
21	225.0/365.0	952.2
22	225.0/405.0	 1108
23	230.0/340.0	985.1
24	230.0/360.0	 1014
25	230.0/380.0	 1076
26	230.0/425.0	 1192
27	230.0/490.0	605.3
28	230.0/530.0	260.0
29	235.0/440.0	 1107
30	235.0/535.0	255.3
31	240.0/385.0	 1111
32	240.0/415.0	 1216
33	240.0/455.0	 1001
34	245.0/390.0	 1135
35	245.0/410.0	 1265
36	245.0/545.0	258.7
37	250.0/375.0	 1043
38	250.0/395.0	 1134
39	250.0/420.0	 1226
40	250.0/530.0	361.0
41	255.0/335.0	709.4
42	255.0/410.0	 1256
43	260.0/365.0	854.1
44	265.0/410.0	 1263
45	265.0/425.0	 1346
46	270.0/395.0	 1164
47	270.0/420.0	 1301
48	270.0/430.0	 1315
49	270.0/445.0	 1270
50	270.0/455.0	 1256
51	275.0/305.0	749.7
52	275.0/435.0	 1343
53	280.0/310.0	944.4
54	280.0/340.0	804.3
55	285.0/315.0	920.8
56	290.0/320.0	878.3
57	295.0/330.0	737.6
58	300.0/335.0	695.2
59	305.0/340.0	667.7
60	305.0/395.0	 1075
61	310.0/345.0	673.9
62	315.0/355.0	678.9
63	315.0/405.0	 1123
64	320.0/360.0	761.5
65	320.0/395.0	 1091
66	320.0/415.0	 1179
67	325.0/365.0	808.3
68	325.0/410.0	 1162
69	325.0/420.0	 1173
70	330.0/370.0	861.3
71	335.0/380.0	910.2
72	335.0/435.0	 1108
73	340.0/385.0	936.4
74	420.0/330.0	15.51
75	425.0/335.0	17.49
76	430.0/345.0	14.70
77	440.0/340.0	14.18
78	440.0/515.0	156.0
79	445.0/295.0	7.222
80	445.0/350.0	14.75

Data Points
	200.0	205.0	210.0	215.0	220.0	225.0	230.0	235.0	240.0	245.0	250.0	255.0	260.0	265.0	270.0	275.0	280.0	285.0	290.0	295.0	300.0	305.0	310.0	315.0	320.0	325.0	330.0	335.0	340.0	345.0	350.0	355.0	360.0	365.0	370.0	375.0	380.0	385.0	390.0	395.0	400.0	405.0	410.0	415.0	420.0	425.0	430.0	435.0	440.0	445.0	450.0
280.0	145.3	55.49	72.93	100.5	60.76	70.09	53.76	28.77	15.86	40.81	85.94	97.26	66.28	20.03	24.13	 4088	9999.9	 8276	205.9	44.86	38.59	45.07	34.80	25.53	22.71	23.71	17.87	20.86	16.83	15.82	16.92	16.32	17.10	14.06	13.72	14.36	12.87	11.17	11.90	9.269	7.155	6.936	6.328	4.782	5.208	4.085	5.749	3.868	4.426	3.793	3.239
285.0	339.6	130.8	141.0	206.9	223.2	244.6	131.6	72.70	66.87	95.66	165.6	167.9	230.5	135.3	74.61	313.3	 9311	9999.9	9999.9	 1453	67.79	53.70	49.85	39.81	27.84	23.96	23.28	21.38	22.00	20.19	17.84	16.24	16.57	16.23	16.03	16.04	15.17	12.49	11.19	10.56	8.781	7.755	8.987	5.247	5.106	4.710	5.793	4.881	4.703	3.149	3.723
290.0	489.9	369.7	305.4	389.2	431.2	408.0	285.8	129.8	112.9	190.8	235.0	223.4	269.7	298.8	179.5	146.9	702.1	9999.9	9999.9	9999.9	 1937	89.85	76.29	63.44	42.65	34.27	29.66	27.24	24.51	19.82	19.31	19.33	18.47	17.51	18.87	15.51	13.84	15.03	14.63	10.68	8.900	10.14	8.773	6.427	6.300	6.179	6.493	6.233	5.656	5.504	4.432
295.0	526.1	411.8	467.7	511.2	606.9	506.6	357.9	220.4	197.3	205.5	314.9	263.8	224.4	330.7	480.2	244.3	202.9	805.6	9999.9	9999.9	9999.9	 2440	111.5	84.14	74.41	56.92	43.31	31.77	29.36	24.36	23.14	21.50	20.40	21.58	20.09	15.80	17.74	14.88	15.19	13.04	12.42	12.08	9.790	5.693	7.204	7.689	7.012	5.313	5.819	7.222	6.407
300.0	828.7	555.3	554.7	616.4	681.4	701.4	506.5	354.5	231.5	307.2	318.5	312.6	275.3	306.5	503.4	570.3	296.3	283.3	859.2	9999.9	9999.9	9999.9	 2521	126.6	101.4	85.70	55.59	43.94	40.85	30.90	30.02	24.01	24.53	21.60	21.57	18.21	18.50	16.77	13.46	15.39	14.16	11.25	10.68	8.702	8.160	10.08	7.271	7.386	7.382	5.984	7.284
305.0	753.6	734.7	752.1	671.5	727.6	677.9	641.0	388.8	348.3	341.7	398.9	344.7	340.4	328.2	367.8	749.7	635.3	330.5	271.1	877.7	9999.9	9999.9	9999.9	 2926	147.8	119.3	93.93	69.05	50.41	45.19	31.75	31.72	28.47	24.24	25.02	24.06	19.87	18.51	16.83	14.38	14.50	13.50	11.68	11.49	10.21	9.097	9.671	8.614	9.876	6.683	7.872
310.0	906.8	789.1	880.9	641.4	886.6	740.5	643.0	460.2	384.4	451.4	432.1	447.5	424.6	399.9	412.8	501.8	944.4	576.1	312.3	272.5	889.3	9999.9	9999.9	9999.9	 3075	176.2	133.0	109.9	84.24	57.28	38.69	35.23	33.86	30.37	28.90	24.21	21.13	19.98	16.01	17.26	15.24	16.22	13.00	12.81	9.428	11.07	9.188	9.946	10.02	8.918	7.878
315.0	820.8	739.2	678.0	906.4	747.5	807.6	707.7	604.0	425.4	466.9	511.6	483.9	441.6	428.5	478.9	532.2	638.7	920.8	479.8	244.5	237.5	894.9	9999.9	9999.9	9999.9	 2725	192.3	140.8	115.0	86.91	58.93	46.59	34.22	36.63	30.73	27.91	25.90	23.01	20.59	17.97	16.96	14.61	14.46	11.35	9.859	10.52	10.69	10.63	9.431	8.050	8.446
320.0	909.0	810.9	853.7	960.8	775.1	780.1	782.6	599.0	500.0	519.1	588.7	569.5	536.0	495.9	545.9	583.4	603.7	762.8	878.3	383.4	225.0	238.3	917.2	9999.9	9999.9	9999.9	 2797	216.2	155.0	120.1	91.49	62.83	49.13	39.94	40.45	32.81	26.70	26.12	22.40	20.06	18.07	17.48	14.38	12.97	13.48	12.10	10.80	10.42	10.62	8.166	9.615
325.0	839.1	936.9	814.6	905.8	754.0	833.6	901.3	733.2	605.4	636.4	635.9	622.7	591.5	543.0	548.5	655.5	637.3	657.5	793.4	707.5	314.2	210.3	253.6	937.7	9999.9	9999.9	9999.9	 3021	221.2	153.1	125.8	95.57	68.37	54.69	42.75	40.87	34.21	25.71	22.15	19.81	18.37	16.58	14.99	13.04	14.90	12.44	11.38	11.93	9.899	10.97	9.952
330.0	859.0	842.5	859.6	854.2	892.3	 1053	949.4	784.2	618.4	678.1	641.2	660.1	614.6	577.2	580.7	696.0	718.4	679.6	632.8	737.6	595.9	262.9	202.0	251.6	918.4	9999.9	9999.9	9999.9	 3077	233.0	169.5	137.1	100.2	74.77	55.06	48.31	38.33	26.89	23.66	25.20	16.96	18.67	15.70	13.84	15.51	13.75	10.63	11.42	10.85	11.67	10.13
335.0	834.8	832.7	931.5	922.1	885.4	885.0	880.3	922.6	706.7	678.5	644.1	709.4	614.3	573.0	666.2	720.6	713.3	711.3	638.9	536.0	695.2	492.5	243.8	217.3	269.9	942.8	9999.9	9999.9	9999.9	 3218	278.5	198.2	140.3	106.6	71.91	53.00	43.92	34.80	28.79	21.02	22.47	19.12	18.97	15.41	14.09	17.49	12.53	12.33	11.64	12.18	10.88
340.0	783.1	862.9	773.8	793.4	748.7	939.1	985.1	926.6	771.0	761.0	700.8	701.7	607.6	616.0	648.1	727.7	804.3	728.5	650.0	535.3	507.6	667.7	414.0	240.2	237.6	272.6	941.7	9999.9	9999.9	9999.9	 3616	279.8	199.2	151.5	108.0	77.75	57.39	44.63	33.50	25.34	22.20	19.82	16.82	14.47	16.34	15.01	12.89	12.24	14.18	11.25	10.07
345.0	765.1	803.6	794.8	700.1	896.8	838.6	962.2	904.5	819.3	737.7	723.2	696.7	654.1	615.0	656.8	742.6	795.5	739.8	677.0	548.9	475.8	508.3	673.9	378.7	261.2	234.9	297.6	930.1	9999.9	9999.9	9999.9	 4116	283.8	213.6	146.6	111.9	76.76	49.95	43.33	30.38	26.29	23.06	19.12	17.93	15.49	13.15	14.70	13.35	13.13	12.07	12.96
350.0	762.8	790.5	771.1	932.6	833.8	900.5	972.5	910.8	827.8	844.3	771.3	670.3	711.2	634.6	713.4	783.9	796.4	812.2	755.8	624.3	520.9	495.1	569.7	665.0	379.6	287.6	262.7	302.6	942.8	9999.9	9999.9	9999.9	 4244	293.4	213.9	156.3	107.1	70.16	48.50	41.39	30.28	27.27	18.20	19.06	17.96	14.64	13.62	11.14	12.36	14.75	12.89
355.0	908.6	713.0	725.7	893.7	804.2	937.1	893.5	928.9	879.2	773.6	817.5	742.4	715.5	739.5	749.3	824.9	819.3	824.3	766.2	673.9	578.6	507.9	505.0	678.9	645.9	395.7	322.1	299.3	328.2	948.7	9999.9	9999.9	9999.9	 4523	306.8	214.8	152.3	101.8	71.00	49.59	37.15	33.10	22.40	20.73	17.00	13.75	15.33	14.74	12.48	12.12	12.01
360.0	876.4	861.5	702.1	889.7	910.9	832.5	 1014	949.6	921.4	848.4	826.8	746.4	764.6	754.1	805.6	820.2	861.6	854.4	797.4	718.9	644.5	612.7	583.2	549.5	761.5	629.6	431.0	374.1	320.6	333.2	955.9	9999.9	9999.9	9999.9	 4284	309.8	218.2	134.9	103.1	68.72	47.93	32.91	25.43	23.76	21.46	14.07	15.71	15.34	12.86	13.92	12.67
365.0	715.8	845.9	782.3	823.0	910.6	952.2	950.4	899.9	959.2	885.1	901.2	819.6	854.1	810.7	854.3	881.5	905.9	891.7	843.2	786.2	707.8	684.9	638.0	653.8	676.9	808.3	647.3	462.4	393.6	332.2	328.5	935.2	9999.9	9999.9	9999.9	 4799	299.8	196.5	136.9	88.84	63.66	45.67	37.69	28.55	20.89	15.23	19.27	16.45	14.56	14.91	12.43
370.0	780.4	694.1	752.7	629.6	844.8	885.7	959.0	939.8	948.9	942.4	937.4	795.9	810.0	874.9	891.1	918.2	948.8	931.1	923.1	829.8	758.2	757.3	740.4	718.1	690.5	752.2	861.3	603.1	460.4	400.3	335.0	321.9	948.0	9999.9	9999.9	9999.9	 4762	286.3	194.6	127.9	86.92	62.29	43.50	33.49	25.16	22.43	17.77	16.60	13.10	14.80	11.98
375.0	659.0	690.6	610.8	822.5	846.2	871.5	968.2	938.0	978.1	981.2	 1043	911.2	858.3	951.0	958.2	945.2	984.0	958.4	961.5	852.4	833.7	819.7	807.9	806.8	806.4	746.8	845.2	867.1	596.1	484.5	378.0	334.0	335.0	936.4	9999.9	9999.9	9999.9	 5119	270.5	176.0	119.9	82.85	53.87	40.47	32.20	26.40	21.14	17.45	15.95	14.67	15.39
380.0	813.1	589.8	757.9	771.8	 1027	904.7	 1076	 1008	 1069	 1075	998.8	984.6	981.8	990.2	 1069	992.4	 1034	 1032	959.3	910.5	889.1	886.7	859.5	858.1	875.4	858.1	819.6	910.2	846.6	579.9	451.8	370.1	316.3	328.4	940.2	9999.9	9999.9	9999.9	 4611	252.0	171.4	110.3	78.36	51.15	38.95	29.57	22.56	19.54	15.19	18.47	14.61
385.0	659.3	809.2	735.8	905.9	816.3	970.1	 1026	 1046	 1111	 1047	 1050	 1004	972.3	 1019	 1058	 1028	 1047	 1036	 1011	951.5	946.4	940.2	959.9	935.0	945.3	907.0	907.8	855.7	936.4	765.1	548.0	441.0	376.2	318.8	324.5	931.1	9999.9	9999.9	9999.9	 4808	228.4	164.8	108.0	76.93	51.94	36.65	30.48	22.99	17.57	16.10	15.65
390.0	640.2	761.5	679.9	982.1	916.2	919.4	 1024	 1066	 1064	 1135	 1108	 1037	 1012	 1064	 1128	 1081	 1102	 1072	 1033	990.2	962.9	992.7	989.6	 1007	 1033	989.9	958.2	921.9	896.0	921.9	713.4	537.9	442.6	359.1	305.7	307.9	909.5	9999.9	9999.9	9999.9	 4496	222.4	148.7	92.46	69.98	46.91	33.24	30.98	21.37	20.78	14.71
395.0	565.9	794.4	802.2	887.0	818.9	922.4	 1009	 1088	 1074	 1109	 1134	 1042	 1082	 1099	 1164	 1132	 1124	 1086	 1041	 1010	 1010	 1075	 1046	 1064	 1091	 1053	 1024	 1001	919.0	929.5	916.0	655.8	524.2	452.0	354.7	292.1	291.6	888.2	9999.9	9999.9	9999.9	 4615	210.3	132.5	91.75	68.80	52.92	35.09	25.02	21.83	17.81
400.0	538.2	781.6	745.9	843.0	932.5	813.8	 1062	 1183	 1202	 1100	 1052	 1061	 1144	 1160	 1128	 1202	 1171	 1084	 1068	 1069	 1034	 1047	 1091	 1082	 1062	 1106	 1084	 1049	981.5	911.5	924.6	847.8	630.8	509.2	425.4	351.6	273.2	284.5	894.9	9999.9	9999.9	9999.9	 3977	189.9	132.9	87.53	65.04	42.80	32.47	24.49	23.12
405.0	563.3	589.2	759.8	869.6	877.4	 1108	995.9	 1081	 1181	 1100	 1164	 1173	 1122	 1254	 1217	 1205	 1169	 1160	 1118	 1087	 1019	 1058	 1097	 1123	 1116	 1116	 1107	 1087	 1038	950.1	900.0	920.2	814.3	599.8	505.7	408.6	322.3	262.9	282.9	856.4	9999.9	9999.9	9999.9	 3617	182.4	118.1	79.82	55.83	40.30	33.34	25.55
410.0	558.3	602.3	814.0	835.5	 1020	 1052	 1028	 1081	 1214	 1265	 1160	 1256	 1222	 1263	 1233	 1233	 1176	 1146	 1110	 1050	 1019	 1075	 1113	 1108	 1145	 1162	 1153	 1108	 1066	 1025	961.3	894.0	919.0	760.0	577.4	465.4	377.3	329.5	273.3	244.7	824.9	9999.9	9999.9	9999.9	 3335	170.3	109.6	74.05	55.95	36.62	29.25
415.0	671.8	558.4	732.4	734.4	997.1	 1065	 1054	 1103	 1216	 1194	 1177	 1178	 1229	 1229	 1262	 1233	 1191	 1169	 1136	 1061	 1059	 1085	 1111	 1133	 1179	 1143	 1151	 1129	 1091	 1051	959.7	915.3	905.3	904.8	715.3	529.3	427.6	393.9	320.5	219.2	227.9	819.9	9999.9	9999.9	9999.9	 3405	159.9	104.3	70.04	50.87	41.79
420.0	485.6	616.7	764.3	845.6	916.6	996.0	 1138	 1174	 1167	 1212	 1226	 1202	 1267	 1295	 1301	 1271	 1254	 1166	 1088	 1023	 1047	 1028	 1067	 1107	 1148	 1173	 1128	 1125	 1106	 1067	 1037	946.7	879.0	881.2	846.3	649.3	486.0	441.8	355.9	246.4	197.1	208.9	800.1	9999.9	9999.9	9999.9	 2969	144.6	95.41	67.22	47.82
425.0	584.0	571.8	716.6	772.5	900.7	 1051	 1192	 1115	 1112	 1203	 1107	 1168	 1192	 1346	 1287	 1314	 1197	 1204	 1152	 1030	 1011	 1020	 1067	 1075	 1104	 1133	 1133	 1100	 1113	 1053	 1029	974.0	907.8	876.2	868.4	727.0	548.1	482.2	391.9	277.7	226.0	177.8	199.6	795.6	9999.9	9999.9	9999.9	 2578	134.2	96.22	60.71
430.0	466.5	567.4	690.0	707.3	937.9	984.8	 1067	 1065	 1137	 1171	 1218	 1239	 1300	 1307	 1315	 1290	 1271	 1191	 1144	 1057	 1007	 1006	 1057	 1051	 1102	 1086	 1096	 1084	 1091	 1054	 1026	986.8	933.6	871.6	827.5	795.8	653.7	529.3	403.8	305.0	252.8	200.9	155.2	184.8	779.0	9999.9	9999.9	9999.9	 2338	130.8	81.86
435.0	457.9	556.9	613.9	715.4	953.4	934.4	 1014	 1037	 1033	 1158	 1098	 1207	 1263	 1306	 1290	 1343	 1237	 1140	 1045	985.3	965.5	997.9	 1012	 1001	 1051	 1067	 1082	 1108	 1090	 1063	 1036	986.3	955.1	896.6	837.1	778.3	732.1	617.5	448.2	346.3	281.1	220.8	178.7	142.8	177.6	765.5	9999.9	9999.9	9999.9	 2303	119.3
440.0	413.0	553.9	678.2	680.6	937.4	941.1	 1100	 1107	 1064	 1140	 1090	 1198	 1240	 1281	 1234	 1258	 1229	 1190	 1041	991.0	953.5	974.3	976.0	970.8	998.6	 1001	 1041	 1039	 1048	 1047	 1008	988.1	950.2	907.3	846.1	777.6	731.2	717.9	511.4	379.9	308.1	249.6	203.8	155.4	135.2	167.0	760.6	9999.9	9999.9	9999.9	 2033
445.0	510.4	562.5	636.7	664.2	755.7	868.7	997.1	959.3	982.4	 1128	 1086	 1145	 1184	 1252	 1270	 1260	 1191	 1100	 1042	985.2	930.1	887.9	953.2	951.6	969.4	978.8	 1002	 1035	 1003	 1027	 1000	963.1	916.5	903.9	863.7	776.3	694.7	718.0	596.7	406.3	334.0	278.9	224.5	181.2	147.0	124.2	152.9	764.5	9999.9	9999.9	9999.9
450.0	534.4	528.3	648.0	719.8	872.1	779.3	897.6	868.5	991.0	 1030	 1063	 1153	 1200	 1160	 1224	 1229	 1152	 1081	988.3	933.6	873.5	852.7	874.5	914.0	913.4	933.1	937.2	966.8	986.8	996.5	950.1	928.1	934.4	906.1	839.9	777.4	687.6	671.0	606.9	481.2	355.9	295.7	245.4	202.5	161.4	138.1	119.1	152.8	756.2	9999.9	9999.9
455.0	455.3	520.8	637.9	634.4	682.3	785.6	852.5	936.4	 1001	937.8	 1052	 1019	 1103	 1176	 1256	 1179	 1161	 1070	913.7	887.4	818.1	822.9	837.0	863.8	850.0	877.5	897.8	917.9	928.0	930.7	919.8	907.7	906.3	885.1	850.9	743.8	660.6	645.8	547.0	501.7	413.4	305.0	257.7	213.7	177.0	148.3	130.3	105.5	142.3	750.6	9999.9
460.0	465.1	532.8	588.2	657.0	649.4	630.0	886.1	821.1	977.3	931.4	964.4	 1046	 1034	 1118	 1153	 1096	 1143	980.3	901.3	859.6	795.1	781.2	787.3	796.0	814.1	839.8	834.0	844.0	867.2	865.2	882.0	863.4	828.6	832.1	802.5	722.7	666.3	635.5	530.8	479.5	430.8	338.0	256.8	229.7	196.6	162.0	137.4	105.9	101.5	135.5	739.1
465.0	426.3	669.5	633.0	585.8	724.9	584.1	755.2	772.1	855.1	881.6	872.7	935.7	 1004	981.9	 1077	 1091	 1006	994.3	833.7	800.8	776.5	780.5	723.4	736.3	741.7	779.3	786.3	768.4	806.9	786.1	805.2	803.2	812.2	784.1	773.8	717.1	641.3	622.9	494.1	446.0	410.4	376.2	285.6	239.3	203.0	173.8	144.8	118.2	111.1	95.60	132.5
470.0	466.9	449.5	477.0	550.2	622.0	699.7	759.6	725.5	744.6	834.9	855.1	823.0	922.2	963.4	 1029	998.5	995.6	869.7	844.3	745.4	715.7	693.8	702.0	675.4	691.6	698.5	723.5	733.4	743.4	727.1	732.3	746.3	753.7	734.3	706.4	679.2	606.4	584.8	483.8	418.2	389.0	381.7	316.5	251.0	212.7	185.3	162.0	130.4	117.0	101.3	86.53
475.0	404.4	417.8	484.8	460.3	415.9	548.5	711.8	619.6	699.3	780.0	823.8	798.4	844.0	853.3	925.4	894.6	940.3	848.1	763.3	698.0	662.3	630.9	620.1	606.4	629.9	653.0	651.5	679.2	665.4	666.5	686.2	677.5	695.9	684.1	659.1	632.2	588.3	553.9	476.9	418.9	346.0	339.9	326.2	269.4	207.7	188.1	164.3	133.8	118.6	103.4	90.61
480.0	294.3	534.9	533.9	449.7	496.4	594.5	630.3	638.0	665.3	704.9	729.8	774.5	797.1	881.0	883.6	846.1	858.6	767.7	704.3	673.4	615.3	580.1	589.6	592.8	564.5	579.6	605.6	609.9	612.3	627.8	618.5	642.4	628.7	644.9	634.6	609.7	545.2	534.5	447.4	415.5	365.2	320.8	306.2	281.9	229.0	184.0	163.2	142.3	123.6	100.5	84.77
485.0	299.5	337.0	355.1	451.3	427.7	528.5	534.3	535.2	585.3	709.9	716.3	772.7	761.1	821.6	851.5	786.4	834.2	742.8	675.8	616.2	573.2	563.2	535.5	553.1	554.6	535.7	569.7	559.0	565.9	572.3	578.9	595.4	589.1	591.1	592.8	552.5	521.2	508.0	431.4	382.3	362.7	303.1	282.7	277.4	250.5	199.3	169.0	141.9	131.4	110.1	91.35
490.0	228.6	388.7	333.8	352.7	447.0	495.7	605.3	556.3	573.9	627.0	712.3	695.9	774.7	776.1	824.2	763.5	775.1	701.6	631.8	595.1	561.9	539.3	506.6	515.9	510.9	503.1	537.9	534.2	534.8	530.3	534.2	533.1	544.7	554.0	548.6	512.5	502.8	474.9	413.9	375.5	323.7	299.7	264.8	247.3	250.2	226.5	167.0	151.7	124.3	113.8	88.32
495.0	327.5	363.1	337.0	405.4	467.7	493.8	415.5	535.8	491.8	539.7	612.1	655.4	673.5	702.8	717.4	747.6	714.2	650.1	599.8	556.7	500.9	517.8	496.2	475.6	485.5	470.5	484.7	475.7	483.7	500.0	491.0	503.7	511.0	518.8	510.7	489.0	467.5	442.1	385.1	345.3	319.0	299.9	256.7	231.0	224.5	218.0	186.8	154.8	137.1	119.4	97.50
500.0	273.5	326.0	300.1	410.3	350.1	410.9	437.1	515.0	505.7	501.2	537.7	590.2	622.1	679.7	654.4	683.9	625.7	627.6	557.8	501.3	464.5	479.7	451.0	430.1	443.7	441.6	446.7	441.5	440.0	455.4	456.3	456.5	458.1	476.4	462.8	452.3	421.2	402.0	362.6	330.1	297.9	277.2	258.8	227.1	217.7	210.4	199.6	155.0	136.2	117.6	104.3
505.0	266.6	256.4	309.8	285.4	348.7	342.6	418.7	414.0	436.1	505.6	566.2	526.2	587.0	621.9	589.5	674.8	583.1	568.3	521.6	444.1	431.6	412.9	426.4	402.0	411.7	397.0	396.9	402.3	390.9	418.9	417.7	416.3	417.7	427.0	426.7	401.3	387.0	370.5	350.3	315.6	278.2	263.7	232.3	212.4	199.9	180.7	186.1	167.1	136.7	118.8	101.7
510.0	175.4	309.4	232.1	265.2	300.3	366.5	404.7	416.6	413.5	412.0	487.4	482.9	576.2	529.4	566.4	549.1	565.7	512.7	467.1	438.8	410.8	374.1	364.7	381.4	368.0	358.1	373.3	367.9	362.3	370.4	369.5	388.7	386.2	389.6	385.8	381.2	354.8	346.2	304.2	292.7	268.0	252.2	219.1	203.4	181.7	167.6	164.9	164.1	144.2	121.4	102.3
515.0	182.3	259.5	221.5	192.8	212.3	306.6	292.0	367.3	387.6	398.8	425.8	452.8	502.5	515.0	545.3	502.0	498.3	513.8	431.8	391.6	364.4	359.2	317.5	319.8	325.4	334.1	332.6	326.1	332.2	335.7	345.5	354.5	350.9	340.1	353.6	344.0	322.1	315.3	297.9	275.7	243.0	228.0	216.3	194.2	179.6	164.4	154.1	150.3	156.0	124.2	98.80
520.0	194.5	252.8	278.2	253.4	214.8	281.5	300.6	311.1	352.2	335.8	396.3	379.4	424.0	487.7	478.8	459.7	471.7	424.4	380.0	362.7	309.3	320.5	319.7	318.8	303.4	298.3	309.2	301.0	302.6	307.9	302.7	316.5	304.6	328.5	324.8	298.8	295.5	271.9	255.6	240.5	217.8	205.2	194.1	182.4	174.3	152.9	137.2	129.9	136.6	122.7	110.2
525.0	201.2	158.3	192.8	231.6	245.1	236.1	228.0	267.5	297.9	336.3	321.6	385.6	419.0	400.2	445.2	414.7	437.3	375.9	374.9	319.5	285.8	287.4	284.3	276.6	265.3	264.4	271.6	263.6	253.2	270.7	281.9	282.3	289.5	293.7	275.9	290.9	256.4	255.9	235.1	212.3	207.7	193.2	177.1	167.1	155.6	141.3	132.0	126.8	117.8	116.4	113.8
530.0	156.7	213.1	260.7	150.8	201.1	230.4	260.0	236.7	282.9	319.2	361.0	310.1	342.2	376.1	413.5	379.3	374.6	361.5	315.3	295.7	274.8	265.0	259.8	244.9	254.4	235.3	236.2	239.8	242.5	245.8	246.1	252.6	258.1	255.2	255.5	249.8	242.4	227.5	209.8	192.2	181.0	179.5	166.6	150.7	140.1	131.0	121.6	113.4	100.1	98.83	114.3
535.0	149.9	149.7	177.5	175.9	197.1	164.2	232.1	255.3	238.2	249.9	282.7	305.8	314.8	344.7	384.5	363.1	328.1	321.5	307.6	268.0	248.7	251.5	233.6	218.9	220.9	209.8	215.3	219.6	215.4	210.4	211.4	228.0	224.5	234.0	231.7	228.4	214.8	205.1	200.3	173.5	171.6	156.3	151.2	141.2	128.1	121.3	111.5	107.5	99.79	90.55	91.82
540.0	128.4	179.8	128.8	166.2	191.7	187.7	210.5	203.1	234.2	221.8	251.0	269.4	306.3	329.4	431.3	370.4	322.8	301.4	288.7	239.6	230.0	208.8	212.1	197.3	195.1	195.3	190.9	190.6	188.7	206.2	196.9	190.6	191.5	206.5	207.4	212.8	197.2	181.6	172.2	168.2	156.0	139.8	132.5	125.3	122.3	106.9	105.3	98.22	88.11	88.80	74.72
545.0	205.5	134.3	185.7	141.6	193.1	168.9	185.5	179.2	194.1	258.7	209.1	236.6	255.1	259.1	436.5	559.6	371.3	254.5	265.7	217.3	205.7	203.9	203.5	180.5	181.8	182.8	174.5	172.4	172.1	179.2	167.8	175.6	181.3	183.1	184.7	182.4	169.2	159.8	153.4	137.3	133.7	122.0	120.6	111.7	105.0	101.6	94.09	86.68	81.49	73.75	67.64
550.0	169.3	179.6	97.63	182.2	203.8	178.2	180.8	183.8	192.5	185.7	197.9	223.2	248.2	242.5	331.2	 1103	514.1	243.3	224.1	213.2	192.4	179.3	186.6	163.5	167.9	160.4	163.9	159.9	163.9	158.7	154.9	156.2	162.7	169.8	165.2	153.6	153.6	144.4	144.4	128.1	118.3	117.0	101.9	104.0	99.33	89.03	85.86	77.36	76.20	71.69	65.83
