Sample:	'SLABO1-5-5-320
File name:	3H7.FD3
Run Date:	17:37:00, 08/24/2022
Operator:	Administrator
Comment:	'

Instrument
Model:	F-7000 FL Spectrophotometer
Serial Number:	2354-007
ROM Version:	5J14000 06

Instrument Parameters
Measurement type:	3-D Scan
Data mode:	Fluorescence
EX  Start WL:	200.0 nm
EX  End WL:	450.0 nm
EX Sampling Interval:	5.0 nm
EM  Start WL:	280.0 nm
EM  End WL:	550.0 nm
EM Sampling Interval:	5.0 nm
Scan speed:	12000 nm/min
EX Slit:	5.0 nm
EM Slit:	5.0 nm
PMT Voltage:	700 V
Response:	Auto 
Corrected spectra:	Off
Shutter control:	On
Contour interval:	25.000

Peak integration
Integration method:	Rectangular
Sensitivity:	1
Threshold:	1.000

Peaks
No.	ApexEX/EM(nm)	Height(Data)
1	205.0/320.0	651.3
2	205.0/335.0	549.3
3	205.0/345.0	510.0
4	205.0/390.0	392.3
5	205.0/435.0	353.9
6	205.0/490.0	235.8
7	205.0/525.0	136.1
8	205.0/540.0	102.4
9	210.0/395.0	421.0
10	210.0/410.0	447.9
11	215.0/370.0	469.5
12	215.0/460.0	340.6
13	215.0/480.0	300.8
14	215.0/495.0	215.8
15	215.0/510.0	205.1
16	215.0/535.0	108.9
17	220.0/410.0	505.4
18	220.0/425.0	472.0
19	220.0/470.0	328.5
20	220.0/530.0	127.1
21	220.0/545.0	120.5
22	225.0/315.0	812.2
23	225.0/380.0	552.6
24	225.0/405.0	478.5
25	225.0/420.0	475.1
26	225.0/485.0	240.5
27	225.0/515.0	175.3
28	230.0/330.0	863.8
29	230.0/385.0	547.2
30	230.0/425.0	463.6
31	230.0/490.0	232.7
32	230.0/510.0	227.8
33	230.0/525.0	143.7
34	235.0/400.0	555.4
35	240.0/410.0	514.9
36	240.0/425.0	474.3
37	240.0/480.0	310.6
38	240.0/500.0	236.3
39	240.0/545.0	100.4
40	245.0/370.0	478.0
41	245.0/395.0	483.5
42	245.0/445.0	461.3
43	245.0/535.0	122.4
44	250.0/295.0	267.3
45	250.0/420.0	495.5
46	250.0/515.0	208.0
47	255.0/360.0	373.5
48	255.0/415.0	482.9
49	255.0/440.0	511.1
50	255.0/460.0	431.2
51	255.0/530.0	157.2
52	260.0/285.0	242.7
53	260.0/430.0	506.7
54	265.0/405.0	460.8
55	270.0/400.0	451.5
56	270.0/465.0	393.7
57	275.0/305.0	846.7
58	275.0/345.0	537.4
59	275.0/370.0	504.0
60	275.0/380.0	469.2
61	275.0/480.0	338.8
62	280.0/310.0	994.5
63	280.0/335.0	596.6
64	280.0/355.0	533.2
65	280.0/375.0	511.5
66	280.0/410.0	478.3
67	280.0/430.0	485.7
68	280.0/490.0	293.3
69	285.0/315.0	987.2
70	285.0/395.0	476.3
71	285.0/415.0	468.9
72	285.0/425.0	472.5
73	290.0/320.0	834.2
74	290.0/400.0	465.6
75	295.0/430.0	435.1
76	300.0/335.0	564.1
77	305.0/340.0	580.6
78	310.0/345.0	533.7
79	310.0/420.0	442.9
80	315.0/350.0	470.0
81	315.0/405.0	457.9
82	320.0/360.0	479.7
83	320.0/400.0	444.5
84	320.0/430.0	422.5
85	325.0/365.0	487.7
86	325.0/405.0	446.7
87	325.0/435.0	428.4
88	330.0/370.0	495.2
89	335.0/375.0	476.1
90	340.0/385.0	478.8
91	340.0/425.0	435.4
92	345.0/390.0	464.6
93	350.0/395.0	454.1
94	355.0/405.0	429.1
95	360.0/410.0	436.1
96	365.0/415.0	433.3
97	370.0/420.0	395.2
98	375.0/430.0	360.3
99	380.0/435.0	312.4
100	390.0/450.0	244.8
101	395.0/455.0	229.7
102	400.0/300.0	6.445
103	405.0/470.0	162.9
104	410.0/475.0	144.4
105	415.0/480.0	122.2
106	420.0/490.0	108.5
107	425.0/330.0	6.415
108	425.0/495.0	104.5
109	430.0/315.0	5.800
110	430.0/340.0	6.691
111	430.0/500.0	90.06
112	435.0/335.0	6.163
113	440.0/370.0	6.924
114	440.0/515.0	66.41
115	445.0/520.0	57.03

Data Points
	200.0	205.0	210.0	215.0	220.0	225.0	230.0	235.0	240.0	245.0	250.0	255.0	260.0	265.0	270.0	275.0	280.0	285.0	290.0	295.0	300.0	305.0	310.0	315.0	320.0	325.0	330.0	335.0	340.0	345.0	350.0	355.0	360.0	365.0	370.0	375.0	380.0	385.0	390.0	395.0	400.0	405.0	410.0	415.0	420.0	425.0	430.0	435.0	440.0	445.0	450.0
280.0	81.29	81.80	66.12	42.20	48.27	39.27	46.91	13.63	25.99	57.00	62.21	85.29	81.50	33.14	16.81	 1687	9999.9	 4057	102.3	19.12	14.51	16.96	11.00	11.45	10.10	5.940	8.062	7.841	5.455	8.232	6.474	6.612	6.203	5.453	4.416	6.838	3.624	4.461	4.204	3.566	2.788	2.952	1.753	2.576	1.569	1.336	1.566	1.730	1.472	2.115	1.390
285.0	234.9	198.2	124.2	175.0	209.1	156.5	115.3	78.32	69.43	131.5	176.5	180.5	242.7	141.3	51.70	146.1	 3946	9999.9	9999.9	798.5	29.08	22.22	19.75	11.83	11.01	6.771	7.213	8.615	6.235	6.470	5.988	7.098	6.550	5.160	6.630	3.798	3.831	3.576	3.879	3.614	3.807	2.834	3.755	2.667	1.862	1.872	1.804	2.792	3.353	2.294	2.732
290.0	464.2	268.3	249.8	294.2	359.9	345.8	254.3	145.9	123.2	177.3	244.8	242.1	227.9	329.2	157.9	117.5	333.4	 8472	9999.9	9999.9	982.9	33.12	32.63	21.77	15.68	13.43	10.19	11.00	8.480	7.570	6.880	6.255	6.397	6.149	7.034	4.934	4.681	4.972	4.185	5.023	4.579	3.818	3.376	3.615	2.858	3.195	2.911	3.106	3.190	3.364	2.991
295.0	635.6	464.9	455.3	407.2	528.1	501.5	407.1	251.7	163.6	188.9	267.3	255.2	234.1	357.5	499.3	247.5	191.8	666.9	9999.9	9999.9	9999.9	 1311	49.30	31.99	23.91	22.82	14.88	11.57	11.40	9.813	7.203	9.226	7.367	7.078	6.599	5.483	6.118	5.247	4.638	5.628	5.007	4.714	4.308	3.667	3.980	4.699	3.818	3.530	4.307	4.200	3.394
300.0	850.1	675.1	497.6	492.5	611.4	625.9	545.0	333.6	194.7	225.4	259.9	231.8	254.8	264.1	584.2	607.2	325.9	272.7	784.9	9999.9	9999.9	9999.9	 1277	44.84	39.41	28.01	20.29	17.95	10.27	9.511	10.59	9.103	7.770	8.476	8.314	5.239	6.028	6.035	4.859	6.086	6.445	4.890	3.903	4.947	4.937	4.236	3.448	3.407	4.625	3.400	3.960
305.0	672.3	483.9	571.0	605.7	720.4	651.0	534.6	383.5	221.9	201.6	252.7	248.1	233.7	292.5	398.2	846.7	731.2	322.1	242.0	753.1	9999.9	9999.9	9999.9	 1422	52.70	39.78	38.76	27.48	18.38	15.25	12.13	8.543	12.17	10.10	9.099	8.006	6.459	6.083	5.902	6.357	4.765	4.652	4.985	4.708	4.999	4.142	4.070	3.991	3.933	4.620	4.340
310.0	825.4	640.7	560.3	680.2	749.0	764.6	616.8	443.8	268.0	231.1	244.8	249.7	283.8	358.3	434.7	577.6	994.5	617.1	257.4	195.4	733.0	9999.9	9999.9	9999.9	 1403	61.60	44.67	34.47	27.14	18.84	14.46	14.04	11.48	10.83	9.029	10.25	6.673	6.950	5.756	5.662	6.899	4.672	6.753	5.690	4.532	4.255	4.935	4.088	4.339	4.823	5.363
315.0	670.8	622.6	564.8	623.0	645.1	812.2	679.0	448.8	302.0	241.5	214.3	268.6	278.5	363.6	456.2	520.9	703.9	987.2	434.4	181.2	146.1	731.3	9999.9	9999.9	9999.9	 1236	64.96	48.74	39.65	32.54	19.87	15.37	13.34	10.70	11.50	12.57	8.603	7.787	7.949	6.858	6.909	6.794	6.125	6.931	4.525	5.378	5.800	4.546	4.051	4.691	5.507
320.0	562.0	651.3	524.8	602.9	626.7	780.2	741.4	498.8	375.4	243.6	263.4	271.5	317.5	397.1	478.8	534.9	554.6	690.6	834.2	295.8	127.5	132.9	750.4	9999.9	9999.9	9999.9	 1190	69.54	46.40	38.19	26.12	21.36	15.39	14.06	11.57	13.07	10.09	8.574	7.619	6.539	7.529	7.515	6.771	5.795	5.523	5.547	4.114	4.660	4.281	4.847	4.359
325.0	465.6	524.1	471.1	506.8	651.3	787.6	711.1	554.5	355.2	274.6	231.3	291.6	317.2	378.2	496.9	549.1	564.1	539.4	706.7	655.4	197.0	114.9	139.3	735.4	9999.9	9999.9	9999.9	 1266	75.56	51.48	43.53	31.80	21.88	19.20	14.71	12.15	9.861	8.545	8.162	7.710	6.527	6.743	6.500	4.725	5.627	5.499	5.653	4.774	5.451	5.630	5.772
330.0	603.9	458.0	492.3	480.5	671.5	812.2	863.8	591.2	403.7	283.3	275.9	286.0	328.6	411.0	484.5	538.8	568.8	549.9	445.6	651.4	509.6	156.6	116.9	137.7	723.4	9999.9	9999.9	9999.9	 1225	79.10	55.68	42.94	33.06	22.51	18.39	13.62	12.81	12.26	8.667	9.989	6.748	5.380	5.821	6.025	5.815	6.415	5.532	5.536	6.393	4.968	5.213
335.0	453.2	549.3	496.2	470.9	659.3	767.2	742.0	595.1	428.6	294.6	286.3	296.6	320.9	404.9	452.9	549.4	596.6	520.1	437.2	360.5	564.1	392.4	130.4	102.7	130.6	737.5	9999.9	9999.9	9999.9	 1254	83.83	59.69	46.73	31.26	22.90	16.82	13.30	11.01	9.876	6.279	6.571	7.522	6.000	6.603	5.889	5.052	5.268	6.163	5.724	5.363	5.494
340.0	535.3	464.3	438.3	526.8	654.4	706.1	751.8	578.0	412.1	305.3	302.6	288.0	331.2	386.6	481.3	525.4	551.6	498.4	419.9	314.9	294.9	580.6	276.8	109.3	95.35	129.9	731.5	9999.9	9999.9	9999.9	 1410	89.19	59.76	45.18	37.84	24.67	19.01	15.00	11.56	8.639	9.672	6.641	6.151	6.010	5.112	5.695	6.691	4.396	5.421	4.946	4.526
345.0	389.2	510.0	467.2	400.9	616.2	610.7	700.8	572.8	456.4	331.0	302.4	296.5	326.7	387.6	479.0	537.4	526.9	519.8	439.4	348.8	254.9	306.8	533.7	215.1	115.1	106.2	131.6	727.0	9999.9	9999.9	9999.9	 1547	90.91	67.13	47.63	34.77	25.16	17.58	12.52	9.617	8.969	7.371	7.731	7.273	5.790	5.981	4.708	5.360	5.903	5.796	5.862
350.0	367.9	488.0	348.6	460.8	474.8	610.8	680.2	539.6	438.3	354.2	331.9	322.4	348.4	371.2	445.7	508.0	529.1	505.7	451.0	346.1	238.3	240.4	379.5	470.0	192.2	127.7	110.9	134.4	727.7	9999.9	9999.9	9999.9	 1609	89.22	67.50	45.40	34.51	25.02	15.40	12.63	12.24	10.18	8.419	7.222	6.570	6.807	6.248	5.471	5.486	6.570	5.190
355.0	345.8	421.1	385.4	468.7	472.9	613.0	650.6	547.5	417.1	365.6	374.9	354.7	355.9	396.0	482.0	492.7	533.2	518.2	472.5	381.1	261.4	249.2	257.9	438.3	437.9	192.6	138.5	119.3	141.9	723.0	9999.9	9999.9	9999.9	 1706	95.25	63.27	46.45	33.85	22.67	14.89	15.20	10.36	9.967	8.549	5.782	6.941	6.685	6.081	5.922	5.179	5.917
360.0	380.1	420.0	427.7	449.2	470.7	558.4	575.1	524.4	449.6	329.6	355.8	373.5	332.4	410.0	459.2	480.8	502.1	491.3	447.7	382.0	315.2	274.0	250.1	272.2	479.7	384.3	173.8	142.9	115.2	145.3	731.6	9999.9	9999.9	9999.9	 1609	88.08	66.45	41.38	29.47	20.56	15.06	13.93	10.44	7.567	7.908	7.475	6.620	6.077	5.744	6.057	5.845
365.0	365.5	286.3	385.6	340.2	426.8	577.8	542.7	532.7	420.5	378.5	383.6	365.4	368.1	425.0	448.0	501.2	494.4	458.7	456.6	394.4	307.1	310.0	277.3	262.8	310.5	487.7	331.2	172.0	140.6	128.6	149.7	721.2	9999.9	9999.9	9999.9	 1701	87.24	64.77	41.04	31.47	24.55	12.49	11.94	9.558	7.020	5.435	6.238	4.950	5.613	5.161	5.773
370.0	298.7	347.9	353.9	469.5	440.8	447.0	527.1	514.7	437.3	478.0	395.2	369.4	403.1	433.7	462.7	504.0	484.6	469.0	425.0	409.4	344.1	327.0	313.7	284.7	291.3	368.7	495.2	282.8	172.3	137.3	118.4	141.8	721.1	9999.9	9999.9	9999.9	 1698	84.61	52.89	38.61	28.16	19.99	16.02	11.50	9.430	7.386	7.225	5.724	6.924	5.229	4.862
375.0	326.0	455.8	364.4	466.1	465.8	534.7	513.8	487.6	458.8	394.0	371.8	387.7	398.0	410.0	447.1	462.8	511.5	437.3	446.6	388.2	372.2	362.1	357.5	321.1	319.6	295.0	424.5	476.1	236.6	174.3	141.9	110.7	136.2	725.1	9999.9	9999.9	9999.9	 1781	81.25	57.86	39.50	27.61	22.82	14.58	11.78	8.791	7.242	7.363	5.846	5.305	5.056
380.0	263.7	352.3	380.1	363.0	520.9	552.6	533.7	448.3	403.4	430.0	414.0	379.0	376.2	418.0	439.4	469.2	436.2	465.0	455.3	411.2	370.5	387.0	370.0	341.7	345.4	344.0	329.2	454.7	419.2	224.4	158.1	125.8	109.1	134.3	725.6	9999.9	9999.9	9999.9	 1623	77.30	55.66	35.41	26.37	18.89	13.36	12.40	8.636	7.989	7.360	5.122	5.608
385.0	279.4	312.5	345.1	366.2	427.8	500.9	547.2	491.2	442.8	458.9	425.4	395.8	398.5	400.5	415.9	468.1	460.3	460.0	424.4	427.9	403.9	406.9	404.9	395.8	369.3	374.4	347.4	351.7	478.8	383.3	205.3	159.0	124.5	114.5	128.4	712.2	9999.9	9999.9	9999.9	 1692	73.59	51.21	36.10	26.22	17.47	12.95	11.24	10.16	7.133	5.837	6.232
390.0	227.7	392.3	370.4	331.6	411.3	464.8	499.2	534.8	433.2	434.2	411.5	422.1	393.9	406.2	423.6	462.9	457.9	468.1	430.5	422.4	411.4	410.4	414.3	399.3	402.8	378.3	367.7	349.5	362.6	464.6	329.9	192.0	139.4	122.0	99.11	127.2	708.0	9999.9	9999.9	9999.9	 1662	70.79	47.17	31.68	23.56	15.60	12.61	10.51	8.729	7.104	6.131
395.0	259.1	290.5	421.0	358.3	313.8	510.4	506.6	525.4	445.6	483.5	451.9	424.7	423.5	413.2	439.3	462.4	463.7	476.3	447.0	422.3	424.6	424.2	418.7	418.8	421.5	411.6	404.3	361.6	347.1	402.3	454.1	289.2	189.9	155.1	121.3	101.2	125.2	696.8	9999.9	9999.9	9999.9	 1660	63.71	44.10	31.61	25.74	16.03	11.79	10.26	10.41	6.526
400.0	275.2	268.2	323.9	395.2	394.9	444.4	546.3	555.4	464.4	454.5	423.5	428.7	444.7	437.5	451.5	441.6	446.3	432.7	465.6	453.0	445.7	440.4	425.8	444.1	444.5	440.9	397.1	393.2	367.0	356.3	420.2	426.5	250.4	192.4	146.7	116.3	93.97	117.2	697.0	9999.9	9999.9	9999.9	 1443	65.48	41.54	28.53	23.52	17.25	12.72	9.955	9.042
405.0	250.4	310.8	327.3	415.0	436.9	478.5	442.1	521.8	483.3	455.5	428.4	456.0	449.9	460.8	430.9	450.4	463.4	453.0	423.7	444.6	419.0	419.9	426.3	457.9	430.8	446.7	416.8	395.0	390.1	355.3	346.3	429.1	382.3	244.7	175.8	132.9	106.9	87.64	110.8	693.3	9999.9	9999.9	9999.9	 1378	58.14	38.49	29.80	21.46	13.86	9.512	9.995
410.0	197.0	307.8	447.9	375.8	505.4	470.4	439.0	511.9	514.9	498.5	469.8	449.0	430.1	452.8	459.1	453.9	478.3	463.5	467.6	453.4	428.2	439.8	439.2	449.8	437.1	435.3	436.6	436.7	406.3	380.7	347.3	347.8	436.1	339.6	223.5	163.9	135.9	100.2	80.19	115.6	685.0	 9726	9999.9	9999.9	 1257	52.66	36.99	25.70	18.90	13.05	10.44
415.0	312.3	282.3	384.1	406.4	416.4	459.0	451.8	495.9	488.9	477.4	481.9	482.9	443.0	459.5	461.8	467.7	454.3	468.9	447.6	402.2	420.5	434.6	434.1	451.9	448.1	446.7	442.7	432.1	412.5	392.1	359.4	330.6	369.8	433.3	308.9	190.9	147.5	114.2	91.21	93.95	102.9	665.8	 9376	9999.9	9999.9	 1231	52.14	36.09	23.17	19.33	14.06
420.0	232.1	322.1	365.7	434.3	433.8	475.1	440.8	467.5	450.3	494.1	495.5	481.3	454.7	413.9	444.1	477.2	468.0	461.7	455.6	422.4	403.6	427.9	442.9	426.7	439.6	446.1	437.8	437.0	421.9	396.1	386.8	358.7	337.5	390.4	395.2	237.2	173.8	129.7	106.4	97.34	72.07	96.65	640.2	 9167	9999.9	9999.9	 1113	47.51	29.92	23.14	18.56
425.0	245.2	309.5	311.9	453.9	472.0	424.0	463.6	419.2	474.3	450.1	472.6	434.6	468.0	434.1	491.8	485.2	442.2	472.5	446.6	430.2	396.3	386.9	427.2	428.9	414.4	441.6	426.7	401.5	435.4	402.5	382.0	357.0	340.4	320.9	374.5	328.8	199.2	146.4	113.7	102.6	74.24	60.34	92.18	621.5	 8465	9999.9	9999.9	959.9	45.77	31.11	22.42
430.0	246.2	259.8	333.0	291.5	387.7	418.7	393.7	406.7	455.9	459.5	473.9	463.0	506.7	494.1	492.9	463.2	485.7	438.9	413.8	435.1	396.9	389.6	385.5	393.4	422.5	414.4	425.2	413.4	422.6	402.2	376.3	362.7	338.8	325.5	316.5	360.3	260.1	157.2	127.0	109.0	78.55	68.92	61.97	85.10	573.1	 8138	9999.9	9999.9	879.0	44.95	30.43
435.0	148.8	353.9	316.6	266.8	302.5	420.9	398.8	428.8	447.7	439.6	436.8	424.5	476.9	460.3	453.8	466.9	470.0	446.6	395.4	371.2	385.1	386.1	381.6	390.2	410.8	428.4	415.5	417.6	408.4	407.6	374.6	361.7	343.5	317.2	297.3	307.2	312.4	232.7	144.1	123.4	91.28	75.32	58.55	55.58	78.81	549.8	 7763	9999.9	9999.9	872.0	44.77
440.0	232.3	277.6	308.8	281.6	412.3	414.6	433.5	430.4	439.5	443.5	478.8	511.1	472.6	470.9	455.0	465.3	425.3	416.8	408.1	381.3	377.3	365.2	369.6	369.7	403.5	394.2	408.9	390.9	388.6	389.0	371.6	351.8	344.3	319.0	308.3	274.5	291.6	272.6	177.6	137.1	100.9	80.48	64.24	53.19	46.25	77.13	524.2	 8064	9999.9	9999.9	767.3
445.0	219.7	297.7	304.5	295.8	293.5	308.3	394.9	426.8	399.0	461.3	459.1	413.3	442.9	455.8	451.9	446.8	440.7	418.1	397.3	350.1	355.0	338.0	356.0	372.3	353.9	376.3	390.1	377.1	383.6	378.8	366.9	358.7	343.4	331.4	300.5	268.0	236.5	261.3	244.7	163.1	107.3	89.22	73.24	63.40	52.06	44.80	71.42	544.9	 8180	9999.9	9999.9
450.0	299.7	265.5	262.2	256.9	299.2	305.5	378.0	355.6	376.6	405.6	424.2	406.9	437.8	449.0	421.3	453.2	418.0	403.2	369.0	340.3	300.0	331.6	338.8	347.1	334.3	365.6	352.9	368.1	368.5	347.1	349.2	340.2	328.0	311.9	283.7	266.8	222.9	221.2	244.8	205.5	127.5	96.30	79.09	66.94	58.30	45.48	42.05	75.33	553.1	 7659	9999.9
455.0	222.5	262.4	284.5	284.0	322.2	327.6	343.5	378.5	387.1	381.2	394.4	426.3	410.6	414.3	435.3	436.4	412.2	378.0	326.2	346.9	299.6	286.8	306.8	309.3	316.5	335.0	348.5	335.8	358.0	345.3	350.6	328.7	311.9	306.1	292.4	254.1	216.8	208.2	202.8	229.7	153.0	102.9	86.05	74.78	56.65	54.43	41.93	43.56	67.41	516.7	 8006
460.0	235.8	225.6	277.6	340.6	259.4	338.5	385.7	332.6	338.8	403.9	386.4	431.2	392.0	401.2	381.8	389.3	392.7	339.2	335.2	293.1	285.8	266.2	310.0	304.3	300.7	292.6	326.8	317.3	324.4	320.7	317.8	307.1	298.0	284.3	277.5	249.3	228.4	194.2	174.2	195.7	190.9	125.7	89.58	77.28	63.34	58.87	49.16	39.46	37.29	63.98	535.3
465.0	235.6	312.6	247.8	315.4	266.3	308.3	264.9	333.0	344.1	316.8	383.8	379.4	381.2	361.3	393.7	375.4	384.2	346.3	307.8	285.4	264.9	255.8	272.5	267.1	296.2	294.5	314.1	280.3	298.4	298.5	279.6	290.1	290.2	279.4	259.9	233.6	220.6	190.6	163.6	160.7	175.0	158.9	96.91	82.80	72.52	59.72	49.73	46.89	34.46	36.30	65.07
470.0	167.6	232.3	180.9	261.7	328.5	280.6	319.3	369.4	320.4	310.7	335.0	366.3	376.1	342.0	386.5	375.6	336.1	320.0	283.2	264.6	232.3	240.3	244.3	235.3	259.6	248.4	261.3	267.3	275.7	266.7	267.5	267.7	263.4	256.2	244.6	232.6	217.8	178.8	165.0	147.6	138.2	162.9	132.0	83.99	74.37	68.01	55.01	47.21	39.86	33.81	33.77
475.0	200.1	251.1	222.0	258.1	286.4	236.5	296.4	316.3	291.7	299.7	280.0	341.0	333.2	344.7	347.9	310.1	326.7	312.7	267.9	255.3	228.9	236.1	226.9	216.8	225.9	234.0	242.4	240.7	252.4	245.4	241.1	246.5	239.5	243.2	233.7	213.7	202.4	165.9	157.3	143.6	131.4	130.7	144.4	107.7	79.85	63.77	57.15	48.06	40.54	35.50	27.93
480.0	172.3	181.4	155.0	300.8	247.7	232.3	253.1	257.3	310.6	284.4	310.9	318.6	322.1	321.5	328.2	338.8	318.5	275.4	259.1	242.7	227.0	216.4	201.6	215.9	203.0	213.0	215.5	207.6	223.2	231.9	218.6	223.9	227.0	222.3	217.7	186.8	187.0	162.5	149.2	134.4	122.2	114.3	118.9	122.2	87.61	68.50	59.70	50.35	38.40	35.66	32.65
485.0	136.9	123.3	169.6	219.7	176.4	240.5	200.8	277.7	249.8	266.6	290.0	289.6	281.1	300.7	303.3	286.2	275.0	255.4	243.7	215.4	203.5	195.6	200.9	195.4	196.7	203.3	204.9	204.1	215.0	211.4	198.7	205.9	203.6	198.1	191.3	189.2	172.1	158.0	148.6	130.9	115.1	102.4	106.5	109.4	104.6	73.12	59.97	50.86	45.64	37.53	29.81
490.0	201.3	235.8	178.9	172.6	152.3	228.3	232.7	208.9	213.0	259.8	283.3	260.9	284.4	300.9	297.1	270.2	293.3	244.0	215.8	213.3	179.1	195.2	176.9	178.1	177.5	171.3	185.9	183.4	197.0	196.3	200.7	187.1	193.5	192.6	190.6	171.4	159.5	144.8	135.3	122.4	117.1	96.30	91.70	93.41	108.5	86.68	59.86	53.01	48.04	42.60	34.92
495.0	137.1	172.8	177.4	215.8	162.1	204.7	207.8	199.3	216.0	253.2	269.0	260.8	235.4	269.0	270.1	259.9	270.5	235.8	212.2	191.9	173.3	167.5	160.5	178.0	166.3	158.8	166.4	172.9	173.0	170.7	183.8	172.6	177.1	181.2	173.1	176.8	143.4	142.9	123.8	119.1	105.3	100.6	89.86	81.03	86.60	104.5	78.98	54.28	47.41	39.44	33.39
500.0	154.0	160.6	156.2	156.9	176.0	187.8	178.9	198.2	236.3	213.9	189.4	209.0	233.0	251.2	234.8	244.7	243.9	212.0	185.9	179.3	166.2	161.8	159.3	147.6	153.3	149.8	145.4	161.8	148.5	151.6	163.8	153.6	162.3	149.9	159.7	149.9	138.1	139.8	124.6	113.1	106.4	97.03	89.60	78.02	74.32	80.72	90.06	66.88	44.97	39.17	36.25
505.0	127.4	144.4	156.2	139.9	127.3	164.7	171.1	188.9	179.0	189.6	194.4	228.2	208.8	209.2	247.6	245.9	209.9	202.3	183.7	157.3	156.1	155.5	153.1	154.5	140.0	150.4	144.5	139.9	155.4	152.0	154.2	151.5	148.9	147.3	146.0	143.6	129.8	118.6	108.8	109.9	95.46	92.80	81.94	75.05	69.51	71.48	82.99	75.07	51.79	42.28	36.47
510.0	129.3	143.0	148.4	205.1	134.8	148.5	227.8	146.0	167.1	179.3	207.1	187.4	192.6	214.8	209.7	213.0	190.8	179.3	168.6	143.9	146.9	137.4	140.3	138.1	128.2	130.1	137.3	126.0	126.9	130.6	129.0	130.3	129.7	132.4	122.8	124.6	116.7	112.1	104.2	94.56	93.13	87.11	76.51	73.64	70.32	63.54	62.35	72.22	60.74	43.21	38.24
515.0	112.1	145.3	142.0	168.3	126.9	175.3	158.7	163.9	143.1	176.3	208.0	182.7	183.1	207.1	193.4	201.1	186.1	169.5	146.6	139.9	131.6	120.5	116.0	122.8	121.7	116.5	120.5	122.4	124.1	123.7	110.7	122.9	120.9	121.4	117.9	120.9	110.1	105.5	96.75	89.62	82.86	77.80	73.74	69.16	68.48	61.61	54.81	58.90	66.41	52.52	37.67
520.0	104.0	104.9	134.0	158.1	120.8	136.4	115.2	146.7	141.4	140.9	170.4	171.5	188.0	191.5	179.7	192.0	178.8	161.6	144.0	130.7	118.4	115.0	113.5	110.0	111.3	111.1	105.8	108.6	108.9	112.7	104.3	116.0	111.4	115.4	110.4	108.8	98.20	98.43	90.08	85.14	74.51	75.07	68.14	61.99	61.24	54.39	52.75	46.59	55.81	57.03	41.95
525.0	113.3	136.1	87.52	148.3	106.1	115.5	143.7	120.4	131.2	128.1	135.3	122.8	141.7	157.0	162.0	162.0	168.7	148.2	139.2	125.2	103.9	109.3	92.09	101.9	98.57	94.21	96.93	104.6	101.0	100.8	107.7	101.0	100.1	102.3	100.8	100.8	91.56	84.53	82.34	79.70	75.67	69.40	66.65	60.87	59.31	52.57	47.13	44.63	44.54	54.45	50.05
530.0	97.72	113.1	108.5	66.79	127.1	96.94	111.0	97.73	114.1	106.8	124.4	157.2	139.1	152.2	151.2	154.9	133.2	123.9	108.7	120.4	98.53	94.62	91.06	94.83	80.63	86.86	86.72	92.08	95.27	92.06	89.59	83.79	97.87	95.33	91.59	81.89	79.80	77.67	78.19	68.95	67.07	62.94	56.74	57.72	53.66	49.60	47.12	44.35	39.66	43.40	51.56
535.0	78.80	86.03	66.50	108.9	105.6	69.77	116.3	115.1	95.25	122.4	113.3	118.1	115.6	143.8	155.5	137.1	122.6	119.1	106.0	99.12	84.42	87.51	79.23	87.92	82.36	78.69	83.95	82.17	83.20	84.10	73.46	80.63	80.54	81.55	83.38	81.86	81.51	72.43	69.10	61.95	61.25	58.78	52.09	53.29	47.20	43.04	45.36	40.30	33.75	35.85	41.90
540.0	62.35	102.4	72.95	95.47	83.26	75.27	94.59	100.2	99.90	101.0	113.1	105.3	121.1	115.9	174.7	137.1	115.1	103.7	100.4	86.43	85.30	82.72	74.55	75.06	69.77	70.53	74.76	73.50	65.68	70.08	65.17	72.21	71.55	70.81	72.41	67.75	70.14	68.19	59.97	60.73	53.95	50.57	52.04	45.78	41.40	43.11	38.91	36.88	33.04	31.45	31.92
545.0	93.09	66.62	50.88	71.46	120.5	99.72	85.03	94.88	100.4	82.53	72.36	99.87	104.0	90.40	181.0	264.4	129.2	101.0	85.88	77.19	76.18	72.05	68.79	70.12	63.57	64.29	67.20	69.55	60.55	55.48	65.44	65.70	69.27	65.46	72.16	67.68	61.56	58.99	56.26	52.52	46.62	51.37	44.91	42.38	40.09	38.11	35.32	32.33	29.80	27.78	29.43
550.0	86.48	115.6	53.20	81.03	96.59	50.54	90.78	66.00	72.41	76.89	97.49	96.82	95.75	102.5	123.5	423.9	231.7	99.98	96.74	65.38	64.07	62.04	60.00	59.68	63.14	62.45	61.20	56.88	57.57	56.71	58.84	56.39	64.73	59.22	63.64	65.22	55.43	53.80	47.64	48.95	45.27	44.09	41.85	39.43	37.27	31.08	31.77	31.01	26.97	28.45	25.44
