Sample:	'SLABO1-5-5-320
File name:	3N1.FD3
Run Date:	14:59:34, 08/24/2022
Operator:	Administrator
Comment:	'

Instrument
Model:	F-7000 FL Spectrophotometer
Serial Number:	2354-007
ROM Version:	5J14000 06

Instrument Parameters
Measurement type:	3-D Scan
Data mode:	Fluorescence
EX  Start WL:	200.0 nm
EX  End WL:	450.0 nm
EX Sampling Interval:	5.0 nm
EM  Start WL:	280.0 nm
EM  End WL:	550.0 nm
EM Sampling Interval:	5.0 nm
Scan speed:	12000 nm/min
EX Slit:	5.0 nm
EM Slit:	5.0 nm
PMT Voltage:	700 V
Response:	Auto 
Corrected spectra:	Off
Shutter control:	On
Contour interval:	25.000

Peak integration
Integration method:	Rectangular
Sensitivity:	1
Threshold:	1.000

Peaks
No.	ApexEX/EM(nm)	Height(Data)
1	210.0/300.0	616.6
2	210.0/545.0	106.9
3	215.0/530.0	208.6
4	220.0/310.0	655.2
5	225.0/305.0	707.9
6	225.0/335.0	 1044
7	230.0/345.0	 1053
8	230.0/360.0	 1050
9	230.0/370.0	 1095
10	230.0/380.0	 1102
11	235.0/400.0	 1237
12	235.0/445.0	 1134
13	235.0/500.0	550.6
14	240.0/395.0	 1208
15	240.0/425.0	 1258
16	245.0/405.0	 1297
17	245.0/415.0	 1338
18	245.0/435.0	 1303
19	250.0/400.0	 1278
20	255.0/415.0	 1346
21	255.0/430.0	 1304
22	260.0/400.0	 1290
23	260.0/435.0	 1344
24	265.0/415.0	 1372
25	270.0/440.0	 1365
26	275.0/305.0	719.8
27	275.0/410.0	 1399
28	275.0/445.0	 1334
29	280.0/310.0	846.3
30	280.0/405.0	 1387
31	280.0/425.0	 1392
32	280.0/435.0	 1349
33	285.0/315.0	877.5
34	290.0/320.0	799.6
35	300.0/335.0	633.7
36	305.0/340.0	630.6
37	310.0/345.0	624.5
38	320.0/360.0	724.3
39	330.0/420.0	 1281
40	360.0/305.0	2.820
41	390.0/315.0	2.618
42	400.0/300.0	2.419
43	410.0/305.0	2.505
44	430.0/385.0	4.751
45	440.0/395.0	4.748
46	445.0/360.0	4.282

Data Points
	200.0	205.0	210.0	215.0	220.0	225.0	230.0	235.0	240.0	245.0	250.0	255.0	260.0	265.0	270.0	275.0	280.0	285.0	290.0	295.0	300.0	305.0	310.0	315.0	320.0	325.0	330.0	335.0	340.0	345.0	350.0	355.0	360.0	365.0	370.0	375.0	380.0	385.0	390.0	395.0	400.0	405.0	410.0	415.0	420.0	425.0	430.0	435.0	440.0	445.0	450.0
280.0	64.93	71.04	53.79	79.37	51.89	38.48	23.09	13.14	19.76	37.40	72.67	75.22	55.67	25.81	22.13	268.9	 1781	848.4	26.84	7.045	4.084	3.467	1.808	1.384	1.790	1.256	1.028	2.121	2.393	1.508	1.069	0.740	0.531	1.215	0.787	1.553	1.339	0.878	0.670	1.584	0.252	0.583	0.976	0.773	1.346	0.421	0.720	0.534	0.651	0.821	0.414
285.0	152.6	135.9	206.6	200.7	205.8	130.6	98.96	50.17	39.89	103.3	145.8	166.0	174.0	112.2	53.34	61.06	681.6	 4613	 3137	181.4	4.871	5.138	4.068	2.461	1.364	2.363	1.677	1.574	2.571	0.874	1.136	1.101	1.514	1.144	1.447	1.779	1.070	0.974	1.155	1.057	0.721	1.208	1.212	0.765	1.030	0.810	1.045	1.359	1.045	0.615	0.664
290.0	392.5	342.1	276.5	284.9	280.0	276.3	199.6	97.26	100.2	134.4	202.3	208.9	224.7	297.6	161.2	86.82	121.0	 1551	9999.9	 4130	212.1	5.736	4.826	3.612	2.981	3.221	2.117	2.517	1.576	1.646	1.641	1.471	1.798	1.244	1.075	0.865	1.220	0.988	1.728	0.835	1.002	1.229	0.972	1.155	1.292	1.919	1.224	1.326	1.186	1.048	0.885
295.0	496.2	438.6	412.5	401.3	422.0	437.1	329.0	184.7	148.1	188.8	222.6	224.6	198.4	306.4	401.0	211.3	142.7	218.4	 3157	9999.9	 5210	261.5	6.367	6.838	5.701	3.197	1.748	3.160	2.499	2.399	1.829	0.962	1.521	1.550	1.258	0.861	1.497	0.989	1.276	1.335	1.722	1.403	1.327	1.713	1.127	1.448	1.984	2.065	1.915	2.124	1.286
300.0	563.7	577.2	616.6	534.3	583.7	570.2	439.8	282.0	180.8	215.2	244.4	226.5	229.7	264.8	476.6	533.1	297.0	220.5	318.8	 2648	9999.9	 6180	280.0	8.193	7.668	5.563	4.105	2.795	4.071	1.921	2.064	2.415	1.658	1.020	1.991	1.680	1.849	1.345	1.141	1.615	2.419	1.655	1.415	1.837	1.978	1.773	1.391	1.912	2.050	1.945	1.710
305.0	570.2	500.6	558.5	489.4	620.5	707.9	554.2	325.4	204.9	205.0	260.1	256.4	271.9	314.6	385.9	719.8	594.8	340.6	217.9	253.2	 2797	9999.9	 7808	338.0	11.20	6.948	4.085	3.597	3.794	1.390	2.233	2.337	2.820	1.608	1.269	1.663	1.594	1.830	1.389	1.975	1.880	2.485	2.505	1.477	1.890	2.126	1.717	1.907	2.650	2.478	2.070
310.0	494.9	626.8	443.3	631.9	655.2	581.0	539.2	419.2	262.9	226.0	226.4	287.6	314.3	360.2	439.0	552.3	846.3	544.1	278.6	166.5	249.9	 2865	9999.9	 7291	343.6	10.29	7.629	5.565	3.263	2.624	2.620	1.628	1.647	2.305	1.359	1.953	1.716	1.760	2.014	1.871	1.163	1.545	1.870	1.884	1.844	2.725	2.452	2.013	1.806	2.888	2.757
315.0	500.1	576.9	513.9	600.7	541.6	613.6	616.1	476.2	296.2	256.2	208.1	292.8	333.5	380.4	497.4	545.3	680.5	877.5	467.3	223.6	132.1	248.8	 4651	9999.9	 6791	314.9	11.51	6.400	5.030	3.872	3.881	1.711	2.628	1.961	1.518	1.705	2.269	1.807	2.618	2.171	1.359	1.887	1.501	1.705	2.526	1.715	2.514	2.833	1.892	3.102	2.326
320.0	554.5	595.5	441.5	549.9	672.3	708.4	706.3	486.7	327.3	257.2	270.2	305.5	330.5	417.7	547.7	666.1	696.7	767.1	799.6	346.3	158.6	124.3	366.0	 3491	9999.9	 7662	304.8	12.32	7.499	6.503	4.474	3.631	2.984	2.941	1.202	1.963	2.629	1.629	1.533	1.917	1.340	1.653	1.239	2.003	1.752	1.800	2.123	2.509	2.018	2.532	2.406
325.0	436.0	412.1	472.4	607.5	615.7	844.2	858.0	650.3	398.9	298.3	322.0	360.2	402.6	494.6	585.8	745.2	759.6	694.2	776.5	640.9	253.7	153.8	126.9	292.5	 3037	9999.9	 7660	298.9	11.77	8.266	7.119	4.609	4.276	2.893	1.851	2.756	2.659	1.127	1.637	2.296	1.416	1.658	1.782	2.373	2.388	2.317	2.292	2.337	2.515	3.108	2.970
330.0	303.4	436.9	539.7	558.6	824.9	894.9	921.7	751.7	465.5	323.8	335.1	395.2	434.4	546.0	633.1	779.9	829.4	785.1	661.3	685.2	531.3	226.7	162.4	128.8	255.7	 3302	9999.9	 8085	278.8	15.07	7.985	6.393	4.762	4.427	3.316	3.236	3.640	2.199	1.882	1.402	1.713	2.143	1.887	1.802	1.771	2.658	2.169	2.673	2.055	2.409	3.671
335.0	351.8	481.2	490.7	503.4	668.1	 1044	984.5	779.6	573.9	387.0	380.7	400.9	485.9	592.4	642.1	802.9	858.3	836.5	705.2	556.6	633.7	437.3	220.1	158.4	115.5	277.8	 3142	9999.9	 7657	290.8	15.21	8.377	6.785	4.618	2.781	3.041	2.189	2.959	2.114	2.553	2.161	2.305	1.676	1.969	1.584	2.058	2.240	2.235	2.224	3.442	3.725
340.0	305.4	458.0	514.1	536.1	781.1	967.7	 1027	777.7	623.7	475.2	415.2	461.6	496.9	604.8	758.1	858.3	914.2	907.5	771.6	602.2	523.3	630.6	380.7	209.2	150.0	128.5	275.9	 3204	9999.9	 8336	325.7	13.64	9.901	7.627	4.470	3.328	3.435	3.043	2.361	2.193	1.866	2.011	1.663	2.325	2.128	2.661	2.518	2.189	2.981	2.765	4.377
345.0	288.5	376.6	420.7	510.6	725.2	973.7	 1053	929.9	789.0	501.6	504.3	502.9	582.7	664.7	757.6	869.6	937.9	946.5	788.8	679.8	514.9	512.1	624.5	354.0	224.7	168.5	143.8	289.6	 3047	9999.9	 9557	311.5	11.65	8.633	5.430	6.382	4.107	3.065	2.584	2.111	2.130	1.741	2.185	1.413	2.118	2.244	2.324	2.590	2.531	3.155	4.158
350.0	234.9	277.5	480.8	545.0	728.0	909.0	 1018	946.1	760.6	581.6	579.0	587.4	606.8	711.3	812.0	914.5	970.1	977.3	907.2	742.2	586.8	537.2	560.2	588.5	334.2	232.6	196.1	158.5	292.7	 3052	9999.9	 7759	312.3	14.69	7.843	7.183	7.116	3.443	2.625	2.256	1.942	2.190	1.775	2.182	2.076	2.407	2.907	2.418	2.320	2.540	3.654
355.0	263.7	293.4	570.9	538.4	739.7	918.9	 1038	950.7	844.3	702.3	636.8	712.0	714.9	789.1	874.3	984.3	 1050	 1030	921.6	818.5	687.5	617.8	573.7	653.0	604.3	355.6	275.2	232.0	175.0	304.9	 3232	9999.9	 7954	317.4	13.49	9.052	10.43	4.785	3.211	2.929	2.715	1.880	2.060	2.013	2.235	2.485	2.279	2.542	2.588	3.769	3.307
360.0	294.6	400.5	475.4	496.3	721.0	958.2	 1050	973.1	901.6	835.3	782.3	740.9	784.4	933.9	955.8	 1043	 1091	 1057	 1002	879.2	773.4	695.1	653.2	623.5	724.3	601.2	412.4	322.2	238.7	181.3	312.8	 2766	9999.9	 7923	299.2	14.22	13.76	6.968	4.254	4.823	3.042	2.487	2.146	2.671	1.830	2.740	2.214	2.734	2.614	4.282	3.667
365.0	278.7	322.2	371.7	531.5	739.0	951.3	 1033	 1005	925.6	861.9	859.2	836.7	861.4	927.5	 1063	 1102	 1128	 1090	 1043	921.4	866.7	789.7	750.1	694.1	683.2	781.7	600.9	438.1	344.3	245.5	167.6	280.8	 2563	9999.9	 7913	337.9	18.77	9.169	6.291	6.077	3.745	3.143	2.575	2.124	2.770	2.354	3.272	1.870	2.331	3.523	3.208
370.0	208.6	356.1	457.3	538.8	748.3	949.8	 1095	 1013	 1035	992.4	943.8	919.1	977.0	 1008	 1118	 1138	 1170	 1116	 1101	997.6	911.2	870.1	831.0	767.0	750.6	756.6	832.5	595.9	451.0	320.1	243.4	180.0	263.2	 2705	9999.9	 8674	351.7	16.60	8.559	6.430	4.792	3.058	2.949	3.213	2.980	2.262	3.350	2.080	2.674	3.071	3.755
375.0	283.8	343.4	586.1	522.6	712.7	945.9	 1032	 1073	 1053	 1090	962.9	926.5	994.3	 1099	 1159	 1163	 1170	 1155	 1141	 1032	974.1	940.2	914.4	909.3	854.9	813.8	837.7	812.7	581.9	438.2	331.2	237.0	178.4	272.5	 2473	9999.9	 9969	346.2	13.14	7.808	6.298	5.031	3.069	3.628	2.521	3.127	2.994	2.436	2.492	3.323	2.987
380.0	276.3	353.9	571.3	609.7	744.8	943.5	 1102	 1082	 1073	 1091	 1052	 1052	 1069	 1124	 1190	 1173	 1218	 1210	 1129	 1084	 1013	 1010	994.3	967.1	937.9	910.7	842.1	882.8	808.5	555.6	440.6	315.8	227.0	177.9	253.6	 2700	9999.9	 8196	334.0	13.81	8.256	5.079	5.088	3.008	2.793	2.946	3.677	2.943	3.696	3.751	4.280
385.0	299.8	461.3	465.9	749.7	759.0	942.2	 1034	 1084	 1167	 1161	 1110	 1106	 1089	 1170	 1219	 1243	 1232	 1205	 1150	 1099	 1070	 1075	 1053	 1047	 1021	984.4	940.0	887.9	922.7	748.0	543.7	415.6	327.9	231.2	167.4	274.6	 2971	9999.9	 7833	298.1	12.96	7.808	5.570	4.802	3.684	4.158	4.751	3.607	2.384	4.179	3.313
390.0	257.0	317.8	423.4	650.3	886.3	869.3	 1072	 1153	 1178	 1122	 1116	 1136	 1175	 1237	 1221	 1250	 1240	 1237	 1207	 1188	 1097	 1097	 1106	 1100	 1094	 1058	994.5	978.8	908.3	902.6	725.9	524.1	434.8	339.9	247.0	175.0	293.4	 2460	9999.9	 6982	274.6	11.79	8.989	5.982	4.230	4.903	4.201	3.751	3.991	3.767	4.315
395.0	389.7	275.6	506.1	723.9	807.2	 1028	 1085	 1151	 1208	 1203	 1189	 1193	 1188	 1214	 1314	 1325	 1293	 1260	 1260	 1191	 1140	 1138	 1108	 1152	 1148	 1137	 1099	 1068	995.8	950.5	901.4	697.3	543.3	426.1	333.8	239.2	164.7	257.0	 2272	9999.9	 6804	263.7	12.49	8.309	6.956	5.630	3.744	4.123	4.748	4.370	4.414
400.0	333.7	336.2	580.1	598.8	763.9	 1108	 1052	 1237	 1162	 1245	 1278	 1206	 1290	 1262	 1267	 1343	 1345	 1311	 1270	 1194	 1168	 1143	 1156	 1186	 1196	 1188	 1178	 1150	 1076	990.8	962.3	887.5	687.6	538.9	437.8	326.8	224.1	160.1	231.3	 2203	9999.9	 6019	268.7	10.68	8.233	6.196	4.983	3.884	3.739	5.751	3.535
405.0	264.4	418.6	603.1	692.3	852.4	 1035	 1179	 1202	 1231	 1297	 1244	 1249	 1290	 1308	 1339	 1336	 1387	 1321	 1291	 1226	 1169	 1174	 1185	 1227	 1229	 1250	 1227	 1177	 1169	 1090	 1013	 1005	887.3	663.6	532.3	412.8	303.4	207.9	152.6	228.3	 2030	9999.9	 6646	203.6	9.941	8.833	7.254	4.643	3.803	4.734	4.795
410.0	169.0	411.9	619.3	732.4	818.5	 1023	 1237	 1211	 1239	 1248	 1224	 1281	 1264	 1330	 1352	 1399	 1340	 1351	 1314	 1257	 1180	 1179	 1166	 1228	 1238	 1253	 1251	 1258	 1208	 1132	 1058	974.3	996.1	829.6	635.5	492.1	376.0	258.6	185.2	134.6	213.4	 1948	9999.9	 5148	209.9	11.32	8.528	5.836	5.084	4.777	5.667
415.0	246.1	351.3	681.5	845.7	779.5	 1044	 1100	 1239	 1214	 1338	 1294	 1346	 1270	 1372	 1289	 1362	 1371	 1360	 1274	 1198	 1152	 1152	 1173	 1197	 1232	 1239	 1266	 1262	 1228	 1195	 1116	 1034	 1007	928.4	747.0	564.2	436.1	314.9	233.9	163.9	119.7	192.9	 1939	 9216	 5444	214.7	11.20	6.941	7.016	5.512	5.064
420.0	281.8	492.8	640.1	749.6	826.9	 1014	 1139	 1146	 1234	 1210	 1293	 1250	 1312	 1329	 1381	 1377	 1381	 1335	 1241	 1195	 1127	 1112	 1162	 1171	 1204	 1212	 1281	 1234	 1224	 1192	 1139	 1070	 1012	961.3	871.8	650.5	490.2	370.2	274.1	197.7	142.5	103.0	186.2	 1824	 9834	 5443	197.3	10.61	9.205	7.182	4.891
425.0	272.5	424.4	514.5	640.2	931.2	892.6	 1085	 1132	 1258	 1213	 1267	 1196	 1337	 1310	 1374	 1357	 1392	 1300	 1280	 1151	 1135	 1090	 1113	 1143	 1147	 1193	 1217	 1212	 1217	 1204	 1159	 1075	 1030	960.2	905.4	760.1	554.6	412.2	329.6	239.7	177.8	127.8	94.64	173.7	 1831	 9479	 5257	147.3	11.31	8.669	7.291
430.0	215.7	421.6	529.6	739.8	880.1	 1005	 1050	 1179	 1220	 1246	 1303	 1304	 1298	 1313	 1339	 1327	 1303	 1304	 1208	 1128	 1060	 1047	 1084	 1089	 1134	 1170	 1180	 1190	 1216	 1204	 1143	 1101	 1038	989.6	876.3	807.4	642.0	465.0	372.4	275.9	214.2	156.5	114.5	83.46	167.2	 1809	 9688	 4092	148.4	11.15	7.615
435.0	357.3	348.3	538.3	659.4	820.5	900.3	 1020	 1056	 1207	 1303	 1217	 1292	 1344	 1272	 1327	 1348	 1349	 1259	 1215	 1125	 1027	 1018	 1046	 1054	 1086	 1137	 1158	 1165	 1165	 1189	 1153	 1108	 1055	989.5	895.1	780.8	734.1	533.5	406.8	317.6	247.5	187.6	138.0	107.8	87.74	169.9	 1921	 7858	 4072	162.2	11.39
440.0	304.0	350.3	635.1	725.9	765.6	819.8	940.8	 1089	 1196	 1250	 1202	 1229	 1252	 1273	 1365	 1310	 1282	 1200	 1203	 1078	 1002	 1005	990.3	988.4	 1028	 1102	 1105	 1148	 1122	 1124	 1142	 1075	 1045	984.3	900.3	788.9	703.5	605.8	467.4	353.9	288.8	223.3	173.9	127.6	99.22	81.49	174.0	 1608	 7713	 4548	127.6
445.0	247.1	345.9	586.8	663.3	856.9	842.5	995.1	 1134	 1108	 1091	 1172	 1188	 1281	 1297	 1293	 1334	 1231	 1190	 1122	 1053	980.4	933.6	937.4	969.6	995.4	 1021	 1078	 1067	 1091	 1091	 1092	 1040	 1044	962.2	898.2	808.9	683.8	604.6	530.7	389.7	312.3	259.9	199.4	161.8	126.2	95.22	82.47	152.9	 1575	 8198	 3844
450.0	291.5	280.6	411.5	653.2	674.2	837.1	928.9	 1018	 1056	 1100	 1143	 1141	 1271	 1246	 1246	 1261	 1239	 1144	 1054	 1008	927.5	872.0	888.8	896.0	929.3	967.6	976.1	 1006	 1041	 1030	 1035	 1002	 1003	930.5	884.2	790.1	664.7	589.8	547.0	459.3	342.2	278.1	229.9	193.0	146.9	118.2	95.84	78.16	149.0	 1589	 8550
455.0	229.9	288.6	468.8	619.6	621.8	723.8	924.4	999.1	991.0	 1000	 1070	 1131	 1114	 1156	 1206	 1157	 1120	 1088	 1042	916.4	866.5	839.9	868.1	833.1	890.5	894.8	930.5	956.4	954.5	967.5	968.1	954.7	945.5	896.6	832.0	772.1	670.2	584.3	524.5	496.7	379.1	308.2	250.0	217.4	182.5	147.7	114.7	86.66	71.28	144.5	 1792
460.0	239.9	341.4	507.4	526.1	483.5	674.2	889.8	870.1	950.5	978.3	 1039	 1030	 1115	 1152	 1154	 1135	 1091	 1016	951.7	870.7	801.8	780.6	769.3	769.3	808.4	821.9	857.2	883.6	915.0	915.0	902.7	904.4	910.2	853.1	808.4	738.4	668.3	583.8	501.2	464.9	425.1	337.3	284.7	242.5	202.7	165.3	133.8	106.2	76.22	66.28	152.1
465.0	151.0	271.4	343.6	526.7	589.9	609.7	838.2	842.2	875.7	918.3	972.3	 1017	 1015	 1084	 1149	 1091	 1015	979.5	905.8	813.6	727.8	722.0	735.2	719.9	728.4	776.8	787.9	783.9	823.9	818.0	830.8	834.9	841.2	788.9	771.0	716.8	639.0	569.3	502.9	446.3	407.9	365.3	301.8	249.1	212.2	186.0	155.9	120.8	90.91	68.82	59.56
470.0	170.3	308.8	376.0	500.7	515.2	643.3	736.0	741.5	780.4	861.7	902.7	900.7	992.4	986.4	 1021	 1048	954.7	910.5	839.3	761.6	721.5	659.9	667.0	690.5	668.1	700.1	715.5	737.6	748.9	769.4	769.9	767.2	786.3	757.5	716.4	665.9	610.9	527.4	486.8	419.6	392.1	369.0	321.4	258.8	223.6	200.0	161.6	133.0	98.08	78.97	58.37
475.0	158.3	274.6	359.8	364.7	414.2	586.5	608.5	778.6	776.8	762.2	834.4	870.0	887.7	918.5	960.2	951.1	862.4	815.5	740.6	711.8	631.2	618.9	613.4	603.0	626.5	632.9	646.3	646.5	689.9	709.0	682.7	699.4	699.2	704.6	678.1	632.0	566.0	501.3	464.8	411.1	368.2	344.7	324.6	275.9	238.2	210.2	166.3	137.1	103.3	83.95	66.23
480.0	122.7	205.5	321.1	313.5	426.0	571.0	626.2	594.1	723.3	726.2	761.4	807.2	828.2	858.8	936.7	861.7	827.2	797.4	700.0	639.7	590.7	563.9	571.9	560.4	576.5	582.3	594.4	606.6	617.8	621.6	641.1	636.4	650.8	654.2	624.1	597.1	531.6	496.6	439.0	393.5	364.0	319.8	313.8	292.4	242.0	205.5	177.6	139.9	120.9	92.77	74.05
485.0	182.5	175.3	331.2	314.3	428.9	501.1	483.8	618.8	624.8	695.3	736.8	761.5	793.0	836.1	826.3	772.2	790.2	742.5	687.4	616.2	561.2	514.5	525.9	511.7	536.3	536.6	545.7	555.5	570.8	587.9	566.3	599.3	600.0	590.3	575.7	559.1	506.8	465.8	416.7	377.1	344.1	316.7	285.3	280.0	254.5	212.0	182.9	148.8	124.4	102.1	81.71
490.0	160.7	210.9	289.9	287.1	407.4	444.0	532.7	521.1	621.2	702.4	728.2	754.9	704.4	744.6	749.3	783.7	721.3	697.9	652.7	576.3	532.2	509.7	504.3	476.1	479.4	494.0	500.9	515.8	524.0	545.1	540.9	537.3	559.6	563.7	542.9	520.6	483.8	440.1	403.1	364.2	339.4	313.7	276.7	262.2	256.9	220.7	182.7	151.5	129.4	104.2	90.84
495.0	151.9	166.6	216.3	331.3	375.4	410.2	453.4	499.7	553.6	604.6	654.7	681.6	695.6	679.8	725.6	746.2	670.7	658.9	581.5	540.9	503.5	474.0	465.5	442.2	449.0	469.2	453.1	466.0	487.0	488.7	502.3	513.8	520.8	516.6	510.3	472.4	447.7	418.1	374.0	357.6	319.7	296.7	275.8	250.0	235.2	232.4	193.8	155.0	130.5	118.4	92.92
500.0	54.50	178.6	168.9	247.9	308.8	401.0	451.2	550.6	488.1	583.5	604.4	635.5	625.4	644.4	694.3	691.8	639.4	596.2	531.5	499.5	449.4	423.1	441.1	415.5	396.2	421.2	435.6	436.3	432.3	449.6	455.6	462.7	461.1	466.2	462.7	448.8	419.1	386.1	355.0	334.3	309.7	286.2	268.1	245.9	225.1	218.6	201.9	162.6	130.7	116.8	96.53
505.0	101.3	152.9	210.4	259.0	328.3	424.3	410.7	458.1	488.7	525.9	476.2	525.1	598.8	589.3	624.2	646.1	610.6	522.9	500.8	440.1	412.0	400.9	388.6	392.0	382.8	363.2	377.8	383.8	377.9	403.7	401.7	423.3	422.9	422.7	430.5	402.2	384.2	356.2	324.7	307.9	285.2	259.2	241.9	225.1	211.4	201.6	189.8	173.4	139.0	112.8	96.45
510.0	172.8	190.6	196.1	242.6	286.7	348.9	352.4	392.4	450.3	454.6	494.9	522.6	568.1	582.6	612.2	606.1	544.5	519.3	428.8	403.3	384.5	366.3	340.0	338.1	331.9	348.9	343.7	355.5	350.9	370.0	358.3	377.3	373.6	389.5	385.1	370.5	349.6	326.6	303.0	286.6	268.8	245.8	236.1	220.5	206.1	181.9	168.6	170.5	141.7	116.8	95.34
515.0	82.87	117.4	135.7	200.2	201.9	274.1	328.6	338.8	382.0	399.5	448.8	481.7	490.0	516.1	575.9	525.3	492.8	464.3	429.6	369.3	341.5	323.8	312.7	317.1	305.9	308.7	314.9	324.6	322.6	321.5	334.1	343.0	341.0	342.9	360.4	331.4	320.7	291.7	278.6	259.5	239.3	232.8	222.8	197.1	182.6	177.0	158.8	153.0	139.0	120.9	100.2
520.0	67.81	105.2	119.8	160.3	212.5	269.0	251.8	345.5	356.4	395.4	425.6	420.4	455.5	495.0	491.6	486.1	442.4	418.4	357.6	328.6	305.8	291.2	279.1	284.2	279.4	280.7	279.2	275.0	272.8	295.0	297.2	305.1	313.6	310.8	317.4	292.8	285.2	272.0	245.7	240.3	220.9	212.1	201.1	184.3	173.7	161.7	145.2	138.4	134.6	126.4	103.4
525.0	109.0	161.8	160.3	170.0	188.3	218.8	240.8	283.3	325.3	342.1	358.0	377.1	378.4	418.4	457.8	422.3	401.2	386.2	331.8	299.0	290.0	249.1	257.7	256.3	254.3	248.5	249.7	248.3	251.4	253.9	259.6	275.6	276.9	278.4	289.5	268.5	259.4	247.3	228.2	217.7	203.2	195.2	185.7	173.3	159.7	149.6	136.5	123.5	118.9	120.2	102.5
530.0	82.27	134.5	93.31	208.6	171.3	234.4	231.2	293.7	289.8	284.7	298.7	345.3	359.6	391.9	389.6	386.4	394.7	325.2	296.0	280.8	253.8	233.9	231.9	234.4	214.5	228.3	221.0	221.4	224.7	230.7	228.9	229.9	240.6	245.3	252.9	246.9	229.4	213.8	201.9	193.2	188.4	180.4	168.3	157.6	149.7	138.8	129.8	122.7	104.5	106.9	104.2
535.0	97.80	77.41	103.1	142.4	150.4	200.6	204.7	228.6	265.0	271.4	283.0	303.8	309.2	342.7	378.2	368.3	348.3	317.9	291.6	261.4	233.6	217.2	194.8	202.0	186.5	195.2	189.0	196.8	204.6	205.1	207.9	198.9	227.0	225.3	223.6	223.6	209.9	186.7	193.3	177.7	167.1	156.1	156.2	138.8	136.4	131.8	114.6	108.6	99.98	92.18	92.36
540.0	67.71	72.41	106.7	95.23	163.0	152.6	164.2	198.0	225.5	231.6	255.9	280.0	293.5	314.6	338.7	346.1	295.4	277.3	267.6	227.7	195.1	188.4	192.4	174.9	178.9	171.5	169.6	174.8	176.9	191.4	184.5	188.6	195.0	191.4	191.0	184.0	183.5	172.3	165.2	154.5	153.4	147.8	137.5	136.0	123.4	117.0	106.2	103.8	89.99	83.76	79.58
545.0	67.73	37.04	106.9	67.64	130.6	125.7	150.0	174.0	201.5	243.7	248.3	232.0	262.6	270.9	311.5	311.3	273.8	267.1	237.4	194.6	182.2	177.2	168.0	158.6	154.4	159.1	156.3	153.8	163.6	158.8	152.4	155.0	162.6	172.5	178.0	168.2	155.8	155.3	144.7	143.3	136.8	131.6	125.4	120.1	108.7	102.6	95.51	88.46	85.60	76.84	74.55
550.0	100.2	73.75	88.11	98.43	111.8	140.9	163.3	166.7	169.1	195.2	207.8	215.3	249.5	255.5	292.5	306.2	276.0	239.3	209.6	183.2	170.5	165.7	145.3	153.5	144.6	141.4	142.0	139.1	141.5	141.2	141.3	145.1	151.2	146.5	157.5	146.0	146.6	137.7	134.8	119.3	122.4	114.1	107.1	108.4	103.7	90.39	87.17	85.54	75.56	69.02	64.26
