Sample:	'SLABO1-5-5-320
File name:	3P11.FD3
Run Date:	16:37:54, 08/24/2022
Operator:	Administrator
Comment:	'

Instrument
Model:	F-7000 FL Spectrophotometer
Serial Number:	2354-007
ROM Version:	5J14000 06

Instrument Parameters
Measurement type:	3-D Scan
Data mode:	Fluorescence
EX  Start WL:	200.0 nm
EX  End WL:	450.0 nm
EX Sampling Interval:	5.0 nm
EM  Start WL:	280.0 nm
EM  End WL:	550.0 nm
EM Sampling Interval:	5.0 nm
Scan speed:	12000 nm/min
EX Slit:	5.0 nm
EM Slit:	5.0 nm
PMT Voltage:	700 V
Response:	Auto 
Corrected spectra:	Off
Shutter control:	On
Contour interval:	25.000

Peak integration
Integration method:	Rectangular
Sensitivity:	1
Threshold:	1.000

Peaks
No.	ApexEX/EM(nm)	Height(Data)
1	205.0/315.0	779.6
2	205.0/525.0	185.8
3	205.0/540.0	128.5
4	230.0/345.0	 3237
5	235.0/360.0	 3067
6	235.0/370.0	 2961
7	235.0/545.0	184.8
8	245.0/380.0	 2944
9	245.0/540.0	238.5
10	265.0/375.0	 1990
11	275.0/305.0	 1009
12	280.0/310.0	 1176
13	280.0/365.0	 2036
14	290.0/325.0	 1217
15	295.0/330.0	 1257
16	315.0/355.0	917.7
17	320.0/360.0	910.8
18	325.0/365.0	930.6
19	330.0/370.0	903.1
20	335.0/380.0	896.2
21	335.0/430.0	931.3
22	340.0/385.0	876.3
23	345.0/390.0	834.2
24	355.0/290.0	5.962
25	355.0/405.0	769.4
26	360.0/410.0	749.1
27	370.0/315.0	9.458
28	370.0/425.0	674.2
29	375.0/290.0	5.789
30	385.0/310.0	7.236
31	390.0/315.0	6.718
32	410.0/475.0	239.3
33	415.0/325.0	6.087
34	420.0/300.0	5.014
35	425.0/295.0	3.933
36	425.0/495.0	172.8
37	435.0/305.0	6.050
38	445.0/300.0	4.779

Data Points
	200.0	205.0	210.0	215.0	220.0	225.0	230.0	235.0	240.0	245.0	250.0	255.0	260.0	265.0	270.0	275.0	280.0	285.0	290.0	295.0	300.0	305.0	310.0	315.0	320.0	325.0	330.0	335.0	340.0	345.0	350.0	355.0	360.0	365.0	370.0	375.0	380.0	385.0	390.0	395.0	400.0	405.0	410.0	415.0	420.0	425.0	430.0	435.0	440.0	445.0	450.0
280.0	56.59	77.57	59.11	80.90	58.52	44.05	39.15	34.10	32.76	32.31	47.52	76.26	60.53	36.82	19.80	 1313	 7262	 2968	99.35	11.68	14.33	12.32	12.19	8.270	6.917	6.207	5.780	4.582	4.475	2.543	3.814	4.513	4.665	2.660	3.025	3.040	2.164	3.377	2.123	2.049	1.342	1.346	2.380	1.406	1.387	2.146	1.581	0.947	1.037	1.256	1.082
285.0	210.9	312.2	253.3	196.7	298.1	176.0	139.2	95.35	61.20	90.13	96.61	126.3	205.8	131.1	93.43	159.9	 2921	9999.9	9999.9	606.4	20.26	17.55	10.70	10.24	6.628	6.732	7.458	7.143	3.526	5.783	4.484	4.093	4.290	3.333	3.480	3.028	3.532	3.159	4.230	3.543	2.218	1.861	1.831	2.292	2.126	1.659	1.491	2.035	2.318	1.554	1.478
290.0	577.9	537.7	409.0	323.6	540.7	335.1	273.7	120.6	95.06	116.3	155.8	162.7	238.0	371.1	218.1	156.0	300.5	 6470	9999.9	9999.9	788.3	29.06	18.67	19.93	13.27	9.203	7.104	6.235	5.112	6.070	4.074	5.962	5.010	5.179	4.500	5.789	4.170	5.126	3.720	4.369	3.070	2.525	3.647	2.458	2.454	1.467	2.199	1.580	2.458	3.194	2.386
295.0	681.2	668.9	549.1	555.0	544.7	566.3	446.6	197.7	164.8	141.9	204.1	241.5	254.5	410.8	583.9	315.3	223.5	547.2	 9689	9999.9	9999.9	975.4	30.63	27.50	18.94	14.17	10.15	10.43	7.203	5.956	5.986	4.847	3.694	5.132	3.762	4.440	4.836	3.560	4.466	4.034	3.872	3.261	3.881	2.867	3.630	3.933	3.737	3.914	3.796	2.785	3.551
300.0	897.1	896.7	659.6	725.8	716.6	747.7	592.9	281.8	152.5	197.9	260.6	291.9	312.9	371.6	683.8	720.4	368.4	236.5	740.2	9999.9	9999.9	9999.9	 1051	33.45	26.88	22.51	15.12	14.60	8.553	8.185	6.990	6.605	4.118	7.213	4.534	4.159	4.064	4.258	3.848	3.507	4.640	4.161	4.605	4.129	5.014	1.854	3.758	3.772	3.566	4.779	4.009
305.0	883.1	882.5	843.1	782.8	783.3	781.1	528.5	377.4	247.5	318.6	367.2	454.1	494.0	531.4	603.5	 1009	789.2	380.2	265.6	775.6	9999.9	9999.9	9999.9	 1182	40.24	32.44	21.26	18.14	12.29	10.76	6.913	8.637	6.618	6.536	5.782	4.680	4.835	4.566	4.616	4.058	5.086	4.676	4.879	3.987	4.436	5.274	4.332	6.050	4.545	3.896	4.328
310.0	757.0	729.7	785.0	723.9	759.7	758.6	627.4	394.8	333.2	411.1	518.2	536.1	576.9	627.9	706.7	752.0	 1176	681.2	330.4	261.5	800.0	9999.9	9999.9	9999.9	 1253	41.02	34.81	24.31	17.84	13.52	9.453	10.85	8.013	7.633	5.267	5.143	6.865	7.236	5.586	5.733	4.492	3.631	3.706	4.859	3.597	4.540	3.332	3.611	5.119	3.265	3.650
315.0	670.2	779.6	747.7	632.3	739.1	799.7	718.2	476.9	403.1	477.5	518.9	610.9	723.4	743.6	762.3	809.9	931.6	 1118	557.4	281.7	269.3	797.0	9999.9	9999.9	9999.9	 1016	42.02	31.34	26.43	18.69	14.11	10.78	8.044	7.077	9.458	6.147	6.344	5.317	6.718	5.492	5.028	3.955	5.085	4.413	3.506	4.364	4.457	3.992	4.618	4.509	4.285
320.0	756.1	737.3	762.9	890.1	796.7	 1154	 1094	841.8	548.4	566.4	622.3	680.5	753.8	863.3	974.8	980.3	923.8	 1033	 1106	554.3	335.5	290.3	798.0	9999.9	9999.9	9999.9	 1039	49.13	34.85	27.60	20.84	15.17	11.52	7.565	7.502	7.725	6.668	6.594	6.208	6.346	5.518	4.763	5.434	4.318	4.805	5.246	5.154	3.553	5.918	5.640	7.225
325.0	580.6	697.2	810.9	 1012	 1402	 1965	 2134	 1546	824.4	663.7	713.0	720.8	866.9	 1060	 1169	 1221	 1236	 1161	 1217	 1128	575.4	370.7	278.8	813.1	9999.9	9999.9	9999.9	 1102	47.15	38.14	29.03	21.87	15.71	10.42	8.293	9.411	9.243	5.593	5.695	5.584	5.195	5.109	4.490	6.087	5.535	4.902	5.630	5.036	7.305	6.471	9.094
330.0	503.4	629.4	909.7	 1017	 1606	 2042	 2851	 1941	 1104	709.9	783.9	772.7	939.0	 1057	 1247	 1367	 1411	 1339	 1158	 1257	983.5	522.8	357.8	265.9	798.6	9999.9	9999.9	9999.9	 1044	56.41	40.87	27.44	24.23	14.74	12.87	9.032	8.558	6.085	6.768	4.524	4.773	3.957	4.493	4.832	6.299	5.947	6.125	6.456	6.637	5.786	8.824
335.0	391.7	667.4	886.0	888.4	 1447	 2254	 2689	 2331	 1304	910.7	785.3	823.5	932.1	 1141	 1307	 1405	 1549	 1457	 1266	 1075	 1154	828.0	456.3	299.8	234.5	783.1	9999.9	9999.9	9999.9	 1083	59.00	40.36	32.12	25.25	16.24	12.79	8.859	7.582	5.592	7.224	6.195	5.416	5.239	5.280	4.266	5.739	5.956	7.157	7.556	6.908	10.31
340.0	532.8	615.3	784.3	 1032	 1622	 2474	 3190	 2600	 1525	 1076	912.5	959.8	 1077	 1224	 1399	 1565	 1716	 1605	 1438	 1163	 1022	 1077	677.8	390.3	284.8	262.6	791.1	9999.9	9999.9	9999.9	 1197	54.59	42.81	33.09	24.44	14.99	12.84	10.03	8.064	7.342	6.155	4.685	4.103	5.581	5.663	5.589	7.144	6.890	6.968	10.01	11.63
345.0	425.0	625.9	815.9	 1009	 1587	 2422	 3237	 2980	 1944	 1465	 1224	 1101	 1143	 1302	 1469	 1690	 1744	 1704	 1588	 1327	 1043	949.4	 1013	578.7	356.6	289.1	248.4	785.6	9999.9	9999.9	9999.9	 1230	58.72	41.56	29.73	23.62	17.86	9.938	8.659	6.758	6.615	6.456	6.725	5.263	5.749	5.760	6.471	5.718	7.295	8.797	9.893
350.0	343.9	533.6	729.5	964.3	 1774	 2292	 3012	 2985	 2262	 1724	 1438	 1337	 1328	 1354	 1540	 1765	 1856	 1805	 1670	 1391	 1152	928.3	917.3	889.4	503.0	366.1	298.0	276.3	794.2	9999.9	9999.9	9999.9	 1251	64.13	44.00	31.28	20.79	12.59	11.50	8.783	7.978	5.836	5.870	5.437	6.335	6.019	6.380	6.323	6.915	9.008	10.10
355.0	454.7	536.2	676.5	986.1	 1711	 2142	 2893	 2946	 2509	 2177	 1903	 1575	 1545	 1648	 1715	 1853	 1927	 1919	 1751	 1513	 1242	 1043	848.8	917.7	826.5	486.5	382.1	307.7	274.3	783.5	9999.9	9999.9	9999.9	 1264	61.57	46.32	26.72	20.29	13.34	10.23	8.063	7.566	5.978	5.825	5.591	6.559	7.879	7.702	7.503	8.239	9.792
360.0	375.1	616.8	773.5	 1075	 1530	 2186	 2780	 3067	 2725	 2371	 2097	 1939	 1785	 1793	 1907	 1860	 1978	 1939	 1880	 1634	 1366	 1118	912.3	831.0	910.8	745.9	469.9	376.7	304.2	254.1	783.0	9999.9	9999.9	9999.9	 1173	64.37	41.36	27.88	20.05	13.43	9.503	9.173	8.246	6.604	5.342	6.324	5.464	5.614	6.481	9.216	9.503
365.0	408.4	702.1	759.7	 1156	 1568	 1968	 2543	 2821	 2742	 2685	 2476	 1957	 1896	 1855	 1882	 1934	 2036	 2023	 1887	 1683	 1404	 1200	 1012	868.8	810.0	930.6	681.2	476.8	385.3	285.7	234.6	763.4	9999.9	9999.9	9999.9	 1315	60.74	36.28	28.48	21.62	12.23	10.64	9.065	6.633	5.714	7.185	7.040	7.051	7.668	7.966	9.784
370.0	372.0	568.7	828.8	967.6	 1488	 1915	 2527	 2961	 2860	 2878	 2453	 2176	 1973	 1947	 1875	 1891	 1932	 1975	 1903	 1726	 1475	 1261	 1091	948.3	814.4	837.3	903.1	639.2	472.5	354.0	247.6	202.4	754.5	9999.9	9999.9	9999.9	 1222	54.27	35.75	30.21	18.06	13.09	8.648	6.954	6.577	7.203	7.047	6.899	7.837	8.030	8.816
375.0	351.2	520.9	746.6	918.7	 1523	 1946	 2362	 2623	 2864	 2932	 2666	 2138	 1941	 1990	 1905	 1855	 1953	 1951	 1840	 1731	 1511	 1330	 1133	989.5	883.4	787.2	873.1	881.6	575.6	436.6	306.5	221.4	174.4	733.6	 9898	9999.9	9999.9	 1245	55.15	44.49	25.70	17.70	11.75	9.405	8.740	7.641	7.370	7.557	8.663	7.229	9.082
380.0	378.7	446.9	678.8	921.2	 1303	 1690	 2239	 2624	 2710	 2944	 2608	 2247	 1912	 1913	 1806	 1865	 1896	 1882	 1810	 1675	 1499	 1374	 1163	 1021	939.4	900.9	822.1	896.2	800.6	522.8	379.6	284.3	205.0	172.4	721.3	9999.9	9999.9	9999.9	 1121	57.18	35.76	21.45	16.86	12.48	8.829	8.524	7.042	7.348	7.622	7.717	7.429
385.0	365.1	532.2	689.9	 1001	 1232	 1538	 2029	 2438	 2655	 2768	 2630	 2168	 1930	 1763	 1789	 1788	 1860	 1783	 1766	 1603	 1485	 1346	 1201	 1076	988.4	938.4	835.6	806.6	876.3	696.0	461.3	332.6	254.8	182.6	173.4	726.2	 8337	9999.9	9999.9	 1195	48.89	32.04	22.86	15.13	10.64	9.121	8.839	9.215	7.634	7.881	8.301
390.0	295.9	515.2	705.8	914.6	 1262	 1371	 1828	 2272	 2637	 2793	 2499	 2061	 1846	 1726	 1689	 1698	 1690	 1732	 1651	 1535	 1465	 1315	 1206	 1068	 1010	923.3	890.4	809.7	803.3	834.2	611.4	416.6	313.8	241.1	175.3	180.9	622.9	 7651	9999.9	9999.9	 1107	42.21	31.89	21.02	15.60	12.07	8.999	9.566	7.312	8.527	8.322
395.0	371.9	544.4	716.2	879.4	 1130	 1523	 1751	 2083	 2509	 2542	 2467	 1953	 1722	 1659	 1711	 1640	 1582	 1637	 1568	 1588	 1421	 1331	 1215	 1078	 1045	957.3	914.0	878.7	798.6	761.9	766.0	537.3	382.2	307.9	238.9	179.6	166.8	578.6	 7175	9999.9	9999.9	 1017	42.86	28.13	18.50	15.66	10.63	11.63	9.102	8.500	9.961
400.0	361.2	557.1	695.4	898.1	 1177	 1461	 1662	 1870	 2086	 2381	 2383	 1926	 1770	 1611	 1584	 1543	 1557	 1534	 1525	 1424	 1363	 1299	 1188	 1100	 1052	978.8	953.1	936.9	841.6	762.7	781.0	700.8	493.0	382.5	306.7	246.5	185.0	164.6	554.8	 7819	9999.9	9999.9	897.6	38.81	28.71	18.35	16.64	11.55	9.627	9.732	8.966
405.0	247.0	550.9	625.7	843.4	 1025	 1401	 1660	 1758	 2098	 2303	 2071	 1826	 1719	 1567	 1492	 1508	 1472	 1489	 1436	 1422	 1334	 1219	 1169	 1132	 1019	 1008	982.3	949.9	865.6	797.5	711.7	769.4	665.6	462.1	376.6	304.0	233.8	185.8	172.7	602.5	 6249	9999.9	9999.9	781.1	37.37	25.30	17.30	13.67	11.48	9.891	8.036
410.0	299.8	438.3	588.8	822.0	 1004	 1232	 1426	 1661	 1908	 2056	 2021	 1785	 1604	 1579	 1431	 1390	 1425	 1357	 1343	 1338	 1276	 1191	 1127	 1071	 1026	 1030	964.2	971.6	873.1	852.5	740.5	724.9	749.1	583.3	445.3	352.2	289.3	223.4	185.5	167.8	501.2	 6238	9999.9	9999.9	753.0	40.25	23.01	16.91	12.92	12.96	8.258
415.0	309.9	492.1	611.5	709.0	929.8	 1142	 1307	 1561	 1719	 1909	 1854	 1701	 1569	 1452	 1446	 1326	 1325	 1312	 1339	 1262	 1190	 1163	 1102	 1074	 1012	 1004	958.3	974.1	906.7	852.0	756.3	730.9	691.2	713.7	536.8	411.7	321.9	256.4	206.8	159.1	141.1	479.7	 6206	9999.9	9999.9	720.2	34.23	25.32	15.40	13.92	10.34
420.0	298.1	486.8	558.7	673.5	920.6	 1122	 1270	 1391	 1564	 1801	 1818	 1618	 1486	 1465	 1364	 1358	 1302	 1226	 1221	 1191	 1107	 1093	 1057	 1015	996.2	968.3	950.3	940.1	924.3	868.5	805.6	742.6	674.2	669.9	668.3	467.7	361.1	288.3	235.5	183.4	142.8	128.5	462.1	 5447	9999.9	9999.9	628.6	29.27	19.82	15.79	11.55
425.0	300.6	477.2	495.4	781.5	839.4	 1045	 1221	 1368	 1503	 1634	 1683	 1633	 1396	 1380	 1354	 1270	 1217	 1195	 1158	 1130	 1057	 1031	 1003	967.7	959.1	942.5	945.4	910.1	911.0	860.9	804.7	747.3	699.4	647.8	674.2	572.5	410.5	323.9	252.5	206.5	160.8	113.6	110.4	408.5	 5224	9999.9	9999.9	559.8	30.94	21.52	15.44
430.0	317.4	451.0	595.3	752.8	849.7	 1075	 1187	 1259	 1469	 1489	 1581	 1569	 1406	 1327	 1244	 1159	 1164	 1132	 1103	 1060	 1010	994.3	973.9	945.2	924.9	916.4	890.8	931.3	872.3	850.1	813.7	747.6	706.8	652.5	624.4	616.0	497.8	350.2	271.3	229.7	179.1	136.3	101.9	105.1	390.0	 5172	9999.9	9999.9	496.6	26.89	20.77
435.0	249.2	393.2	603.6	704.4	809.0	861.9	 1041	 1215	 1229	 1408	 1420	 1506	 1366	 1267	 1262	 1188	 1128	 1074	 1038	 1009	972.9	931.2	919.9	897.3	888.9	865.7	857.4	887.3	865.2	838.8	803.6	743.8	716.4	668.7	608.1	570.4	547.5	404.6	291.2	249.1	190.8	155.2	115.2	91.27	86.60	377.0	 4699	9999.9	9999.9	474.7	27.19
440.0	307.7	295.6	486.2	662.3	674.1	795.6	 1034	 1094	 1209	 1362	 1417	 1288	 1307	 1237	 1206	 1143	 1075	 1062	972.4	961.0	923.4	880.8	872.0	866.9	852.3	844.5	852.0	847.8	824.5	796.6	793.3	744.0	707.4	669.2	592.7	536.8	519.0	464.7	339.7	259.2	216.2	171.5	134.2	101.5	81.73	86.63	348.6	 4672	9999.9	9999.9	414.1
445.0	194.4	354.9	466.4	678.4	711.8	865.5	928.7	985.0	 1173	 1274	 1290	 1282	 1218	 1206	 1103	 1121	 1055	991.1	911.3	911.5	844.8	843.8	839.9	821.1	820.0	787.5	813.8	804.3	822.8	778.4	757.4	726.4	697.7	650.4	624.9	535.1	472.3	462.8	404.5	280.3	218.8	178.5	151.9	113.1	88.69	75.57	85.78	345.0	 4867	9999.9	9999.9
450.0	316.8	385.4	405.4	546.0	631.2	774.6	909.1	964.0	 1131	 1092	 1162	 1233	 1118	 1123	 1118	 1031	959.8	907.6	911.7	811.3	837.8	785.9	782.5	768.8	745.3	772.5	769.9	763.1	772.1	752.1	729.3	708.1	691.7	642.4	598.5	533.6	457.0	406.3	411.9	325.9	238.5	189.6	160.5	127.2	100.1	80.20	70.57	78.00	353.2	 4631	9999.9
455.0	169.5	417.4	509.0	599.3	599.9	672.7	823.8	873.8	 1021	 1133	 1158	 1137	 1081	 1035	994.8	959.4	906.2	881.3	851.8	810.2	726.5	757.8	727.3	710.6	717.3	707.2	725.3	728.2	738.7	714.8	693.4	658.4	650.9	623.2	580.0	511.5	450.0	391.2	362.1	366.4	277.4	200.7	172.8	143.9	108.5	94.26	76.54	64.71	72.68	331.5	 4515
460.0	305.9	313.9	468.1	579.2	499.6	667.1	724.2	865.3	926.2	 1003	 1034	 1055	 1045	958.5	929.4	912.6	869.5	804.4	812.9	737.7	700.6	669.4	690.5	685.2	663.4	663.1	688.3	667.4	688.0	655.8	659.4	617.3	619.4	592.0	560.7	489.7	436.4	389.1	344.6	334.1	308.9	235.0	173.6	150.6	131.9	106.7	90.44	75.40	59.31	69.45	323.2
465.0	318.5	332.3	391.5	427.7	614.5	679.7	710.6	808.3	877.0	894.4	 1026	 1025	 1045	912.5	909.2	837.3	807.4	752.1	711.8	689.3	669.8	607.8	639.3	642.6	604.5	602.6	621.7	623.3	600.1	621.2	594.0	589.6	565.3	551.2	524.2	475.3	410.8	367.7	331.6	302.8	288.3	271.4	202.5	164.6	136.8	117.9	96.63	79.52	61.83	59.68	64.30
470.0	261.2	295.0	337.6	393.6	506.3	535.3	688.1	779.3	783.2	764.5	881.0	889.2	942.1	881.3	799.1	771.3	789.6	743.5	643.2	642.3	603.4	570.8	559.3	576.3	571.0	565.5	568.3	564.0	573.4	557.0	576.0	543.0	548.7	516.5	495.2	458.4	409.1	363.7	327.7	290.3	258.5	266.3	226.6	177.4	147.2	122.1	102.4	88.00	71.81	61.04	53.19
475.0	188.4	265.1	325.5	352.3	461.2	502.0	596.4	718.3	652.4	804.8	830.6	820.1	886.7	808.1	746.9	713.4	690.9	639.3	603.2	587.3	555.9	537.7	532.1	522.3	518.8	505.1	504.9	522.1	519.7	536.7	508.3	491.5	496.9	480.1	471.7	429.3	382.4	344.1	298.6	271.5	238.8	231.3	239.3	194.2	147.4	131.9	108.5	92.01	82.27	65.20	54.06
480.0	132.6	228.9	326.5	423.6	437.3	410.4	469.0	526.2	703.2	729.0	803.9	806.0	757.9	733.9	711.3	670.2	635.2	623.3	563.8	542.5	491.2	501.5	471.1	496.2	479.3	475.7	471.8	479.5	476.3	473.2	466.2	460.9	453.8	446.8	435.9	391.9	355.8	318.8	288.1	267.6	228.4	217.2	216.3	214.5	161.5	134.5	113.3	97.00	83.42	75.42	59.77
485.0	157.9	227.3	301.8	326.0	399.0	460.3	430.8	522.3	602.9	691.2	690.4	752.5	747.8	696.4	636.7	655.2	620.1	552.2	518.8	472.4	472.9	459.3	461.4	439.5	425.7	450.4	433.5	448.0	440.6	449.3	439.7	421.1	413.7	413.6	410.0	382.0	339.2	298.4	282.9	258.3	233.7	213.9	198.4	196.1	188.2	143.6	119.8	100.6	88.28	76.91	60.64
490.0	212.1	203.1	252.4	260.4	320.1	419.6	472.6	504.7	546.9	622.6	654.9	690.5	697.4	666.4	630.0	605.3	573.7	569.5	512.8	467.4	442.3	445.3	431.4	417.6	412.2	391.8	413.7	396.3	403.5	390.4	392.0	388.8	397.6	387.1	372.3	350.4	320.2	290.3	270.4	247.4	225.7	202.9	186.8	175.2	183.6	169.7	113.6	101.2	89.37	82.69	72.09
495.0	163.3	168.4	281.0	342.9	342.6	424.9	456.8	465.5	504.5	597.2	620.3	629.2	652.4	617.9	590.8	583.2	526.7	541.7	469.7	412.8	427.8	399.6	390.8	395.8	385.9	373.0	377.6	376.8	369.0	386.2	359.1	357.3	365.4	357.6	337.9	326.4	305.8	272.2	255.4	232.7	217.8	193.5	181.5	175.7	159.2	172.8	132.8	110.4	94.69	83.31	69.13
500.0	161.3	145.8	213.8	284.7	313.1	378.6	404.4	402.7	497.3	502.8	577.8	579.9	543.2	549.2	536.7	535.5	512.9	464.2	417.6	379.5	355.1	364.3	349.7	349.5	326.5	333.2	342.1	334.7	339.0	337.1	343.5	358.2	323.1	327.0	321.6	301.0	285.0	256.7	239.1	214.3	201.5	196.7	179.0	158.2	153.8	152.5	145.9	121.1	92.55	86.61	74.29
505.0	94.81	134.7	217.7	230.8	326.6	315.1	384.6	387.4	458.5	478.3	471.5	578.9	541.2	508.3	489.5	476.4	479.6	416.0	409.3	343.2	343.0	337.9	316.4	322.7	313.3	310.6	310.9	306.1	305.6	325.4	308.3	297.6	298.5	292.3	287.4	280.8	258.3	241.2	219.0	208.8	193.6	174.9	169.4	145.9	142.0	132.9	139.5	132.2	104.0	80.48	80.02
510.0	134.1	134.9	157.8	268.6	283.8	242.9	353.4	335.2	401.8	442.3	455.1	501.9	506.2	473.4	471.2	437.0	423.5	393.8	387.6	320.8	311.6	297.8	289.3	282.6	272.8	280.4	276.2	274.0	283.5	280.4	287.7	273.4	270.5	274.4	278.4	257.5	229.4	219.6	202.4	190.9	172.2	161.6	158.3	146.9	135.7	125.7	122.7	126.3	103.9	88.42	74.38
515.0	210.6	143.5	174.4	193.7	259.3	291.9	279.7	311.9	339.9	403.1	379.9	420.2	484.2	448.3	424.4	423.3	377.9	373.0	334.9	305.6	284.8	260.7	252.5	261.2	253.8	262.2	252.6	256.6	255.2	241.0	257.2	252.5	257.5	243.4	227.9	232.0	211.1	210.4	182.7	167.8	167.9	150.2	144.5	135.4	125.8	119.6	105.2	109.9	106.3	92.43	74.89
520.0	125.0	175.9	164.1	198.8	211.2	260.3	220.6	281.3	315.1	343.3	365.5	402.1	411.3	393.2	372.6	398.0	372.2	331.2	299.9	273.2	248.1	242.3	222.9	235.1	223.4	219.1	219.4	220.9	225.4	227.5	226.6	218.7	225.0	219.3	218.0	196.1	196.8	181.2	170.1	159.2	148.4	136.4	126.3	119.2	118.7	111.5	97.21	98.63	99.30	98.92	73.32
525.0	100.4	185.8	147.9	200.4	222.0	217.4	248.9	254.2	250.6	289.3	327.1	363.2	369.6	372.7	364.4	367.6	325.9	297.7	258.4	246.0	220.8	231.1	213.2	210.1	203.6	202.3	195.4	183.7	196.5	198.0	190.6	202.5	196.0	207.8	203.5	178.5	181.1	161.5	159.3	142.6	136.5	127.2	115.3	118.9	111.0	99.21	89.66	90.06	83.75	93.75	78.94
530.0	113.6	141.1	133.1	126.5	168.9	158.3	218.7	243.5	242.1	247.8	291.4	326.0	317.8	361.7	312.1	317.1	309.9	298.0	239.5	228.6	208.9	198.5	192.1	188.4	186.1	181.3	182.3	163.0	173.8	181.2	171.0	164.8	171.3	173.0	174.0	170.4	156.9	152.2	144.3	130.7	118.9	116.7	112.1	100.2	100.3	90.70	85.93	80.65	74.70	78.21	80.77
535.0	52.03	100.4	105.2	150.5	136.7	193.9	194.2	182.8	231.6	223.7	274.5	268.8	280.5	289.1	314.4	290.8	249.2	243.4	225.1	202.4	186.5	181.3	172.7	171.7	160.1	165.0	156.4	161.0	148.1	156.0	153.1	143.7	146.5	145.8	147.5	136.4	130.4	130.2	127.7	120.1	104.3	100.3	100.3	92.61	86.11	82.60	76.77	74.51	69.23	67.18	68.81
540.0	64.81	128.5	101.3	87.93	144.9	155.9	167.3	172.0	199.5	238.5	216.6	244.1	265.1	264.0	295.7	271.9	262.4	235.7	194.2	186.8	167.8	167.1	142.0	151.6	156.0	146.4	136.5	143.7	137.4	138.3	139.5	132.7	134.4	131.7	135.4	124.7	121.1	114.1	105.3	104.6	104.6	93.71	88.09	86.22	79.57	74.01	76.03	72.42	63.59	61.27	62.01
545.0	91.15	94.25	87.88	111.0	119.5	153.1	153.6	184.8	173.8	193.1	193.8	218.6	233.9	221.2	299.4	339.6	253.9	192.0	190.2	168.5	145.8	149.8	135.3	143.4	133.5	131.1	124.8	123.8	119.5	119.1	125.6	121.4	120.2	126.0	123.6	112.2	116.6	104.2	101.5	95.92	93.44	82.88	82.07	75.66	73.67	69.61	62.22	61.87	57.29	55.72	51.27
550.0	81.47	104.2	92.72	65.84	83.53	112.3	159.9	125.9	167.2	182.4	214.8	179.8	220.9	186.3	232.4	506.4	298.5	167.4	163.0	149.0	135.0	121.1	126.9	125.4	121.3	113.9	113.0	114.2	112.6	111.4	112.8	112.1	106.7	109.0	104.7	109.8	98.39	91.99	86.33	87.01	77.83	76.89	74.58	69.23	65.66	68.67	62.21	57.96	51.99	48.74	46.18
