Sample:	'SLABO1-5-5-320
File name:	3P8.FD3
Run Date:	16:24:46, 08/24/2022
Operator:	Administrator
Comment:	'

Instrument
Model:	F-7000 FL Spectrophotometer
Serial Number:	2354-007
ROM Version:	5J14000 06

Instrument Parameters
Measurement type:	3-D Scan
Data mode:	Fluorescence
EX  Start WL:	200.0 nm
EX  End WL:	450.0 nm
EX Sampling Interval:	5.0 nm
EM  Start WL:	280.0 nm
EM  End WL:	550.0 nm
EM Sampling Interval:	5.0 nm
Scan speed:	12000 nm/min
EX Slit:	5.0 nm
EM Slit:	5.0 nm
PMT Voltage:	700 V
Response:	Auto 
Corrected spectra:	Off
Shutter control:	On
Contour interval:	25.000

Peak integration
Integration method:	Rectangular
Sensitivity:	1
Threshold:	1.000

Peaks
No.	ApexEX/EM(nm)	Height(Data)
1	205.0/300.0	 1185
2	205.0/530.0	143.1
3	210.0/310.0	 1039
4	210.0/525.0	172.2
5	220.0/305.0	906.5
6	220.0/455.0	780.1
7	220.0/510.0	309.1
8	225.0/485.0	485.9
9	225.0/515.0	284.9
10	230.0/340.0	 3209
11	230.0/535.0	200.4
12	240.0/375.0	 2750
13	245.0/380.0	 2751
14	250.0/295.0	710.5
15	255.0/290.0	655.3
16	255.0/305.0	641.0
17	255.0/440.0	 1286
18	275.0/305.0	 1090
19	280.0/310.0	 1188
20	280.0/355.0	 1918
21	285.0/315.0	 1145
22	285.0/360.0	 1883
23	290.0/325.0	 1223
24	315.0/355.0	868.6
25	320.0/360.0	892.6
26	325.0/365.0	876.4
27	330.0/370.0	865.7
28	335.0/375.0	829.1
29	340.0/385.0	858.1
30	345.0/390.0	785.7
31	350.0/395.0	728.9
32	360.0/410.0	672.5
33	365.0/415.0	674.2
34	375.0/300.0	5.636
35	390.0/315.0	6.124
36	395.0/320.0	6.068
37	405.0/310.0	6.319
38	415.0/330.0	6.772
39	415.0/485.0	189.2
40	420.0/490.0	169.9
41	425.0/305.0	5.710
42	425.0/380.0	11.50
43	430.0/310.0	5.385
44	435.0/305.0	4.912
45	440.0/515.0	102.7
46	445.0/355.0	11.13

Data Points
	200.0	205.0	210.0	215.0	220.0	225.0	230.0	235.0	240.0	245.0	250.0	255.0	260.0	265.0	270.0	275.0	280.0	285.0	290.0	295.0	300.0	305.0	310.0	315.0	320.0	325.0	330.0	335.0	340.0	345.0	350.0	355.0	360.0	365.0	370.0	375.0	380.0	385.0	390.0	395.0	400.0	405.0	410.0	415.0	420.0	425.0	430.0	435.0	440.0	445.0	450.0
280.0	95.40	68.89	100.5	71.33	85.59	50.99	37.35	31.65	73.19	155.5	216.9	222.4	149.0	53.57	28.39	 1295	 7576	 2809	76.35	12.73	12.57	12.03	8.884	7.310	5.467	5.511	5.040	5.893	6.090	4.271	3.623	3.986	3.572	2.937	3.109	2.593	3.280	1.888	2.910	2.759	1.665	1.271	1.705	1.410	1.492	1.294	1.704	1.285	1.480	0.904	1.394
285.0	302.5	310.3	293.4	218.3	219.6	230.9	124.9	88.98	174.3	326.6	534.4	480.1	392.2	196.7	106.4	157.5	 3075	9999.9	9999.9	522.5	20.88	13.11	15.01	11.61	9.125	8.098	6.280	5.822	4.184	3.745	4.864	3.171	3.768	4.946	3.567	2.829	2.513	3.708	3.202	3.535	3.663	2.313	2.632	1.957	1.748	1.987	2.512	1.656	1.399	1.483	1.849
290.0	846.5	665.9	454.4	444.4	402.7	427.4	215.0	156.1	240.0	451.2	626.1	655.3	513.8	510.4	265.0	189.6	319.4	 6483	9999.9	9999.9	690.5	27.94	20.04	15.03	11.56	9.407	8.961	5.880	6.030	5.863	5.085	4.989	4.570	4.282	4.866	3.531	3.019	3.094	1.943	3.810	4.698	3.348	2.296	2.710	3.721	3.327	2.754	2.208	2.906	2.247	2.738
295.0	 1094	952.8	685.5	650.3	644.9	660.2	400.2	234.2	265.4	527.7	710.5	644.1	464.6	513.2	623.6	348.7	249.0	542.7	 9890	9999.9	9999.9	814.4	32.16	21.98	20.20	15.46	8.026	8.037	8.264	7.675	5.463	5.292	5.152	5.304	4.401	5.312	4.638	4.734	3.049	3.972	4.806	4.544	3.848	3.332	3.272	3.242	2.906	3.266	3.366	3.786	2.958
300.0	 1134	 1185	935.6	752.0	736.7	780.7	550.3	334.3	300.3	486.2	646.9	627.8	504.8	481.8	727.5	796.0	391.9	258.6	753.1	9999.9	9999.9	9999.9	847.3	33.93	26.66	19.36	17.30	13.67	9.170	7.903	7.336	8.747	5.739	5.561	4.394	5.636	4.267	4.133	4.595	4.544	3.833	5.153	4.009	3.871	3.041	3.639	3.200	4.589	4.637	4.497	4.531
305.0	 1077	 1105	863.5	743.5	906.5	820.0	623.3	358.0	344.2	488.2	602.0	641.0	561.6	568.9	608.8	 1090	865.0	370.2	270.3	777.7	9999.9	9999.9	9999.9	968.1	39.19	28.40	21.32	17.32	14.65	9.424	6.792	8.500	8.043	5.853	4.792	4.599	5.513	4.347	4.328	5.704	4.866	5.076	4.925	4.528	4.042	5.710	3.911	4.912	4.663	4.678	4.619
310.0	990.0	 1019	 1039	868.4	898.9	700.5	660.6	433.9	403.7	497.1	557.4	604.5	634.6	676.9	722.8	828.2	 1188	734.2	316.1	261.1	809.3	9999.9	9999.9	9999.9	957.3	42.40	31.58	25.82	17.51	10.69	8.895	8.553	9.647	7.749	4.601	5.434	5.875	4.984	5.345	5.807	6.015	6.319	3.451	3.378	4.310	4.559	5.385	4.063	3.766	5.017	3.806
315.0	904.7	918.9	828.6	760.2	784.8	843.2	736.0	491.9	405.9	481.1	521.2	623.0	659.6	700.7	791.7	775.3	898.4	 1145	572.0	292.3	283.0	802.6	9999.9	9999.9	9999.9	833.5	45.78	37.09	29.32	18.84	14.44	11.10	8.676	7.845	8.147	6.620	5.361	4.669	6.124	5.289	5.159	5.260	4.973	4.687	4.345	3.328	4.252	3.466	3.474	3.814	4.952
320.0	751.4	853.6	868.0	997.7	997.8	 1098	 1199	751.6	577.3	547.2	605.3	645.2	713.9	798.5	976.3	983.0	948.4	 1030	 1088	525.7	321.5	275.9	802.6	9999.9	9999.9	9999.9	811.2	46.64	36.65	25.23	18.00	15.48	11.52	9.406	7.507	7.645	4.921	4.802	4.887	6.068	5.991	5.766	4.328	5.661	5.457	4.433	3.311	5.280	5.234	5.088	5.999
325.0	548.6	799.6	846.3	 1176	 1327	 2066	 2157	 1505	795.3	580.7	592.7	747.5	796.1	 1007	 1192	 1205	 1227	 1082	 1223	 1162	570.5	374.3	310.5	790.6	9999.9	9999.9	9999.9	875.9	50.40	38.98	28.83	19.91	17.04	13.23	9.379	6.883	6.458	5.997	6.855	4.778	5.348	5.273	5.567	4.686	4.670	5.890	5.921	5.902	6.060	6.626	7.920
330.0	497.6	733.1	932.9	 1117	 1598	 2276	 2858	 2057	 1078	694.0	662.4	763.7	878.6	 1047	 1269	 1412	 1438	 1324	 1154	 1208	966.9	498.9	360.8	279.7	786.3	9999.9	9999.9	9999.9	834.4	55.26	39.01	31.33	22.05	14.29	11.63	10.52	8.102	6.224	6.188	5.424	5.815	5.561	6.243	6.772	4.374	5.707	5.921	6.833	7.168	8.338	8.458
335.0	592.9	790.2	921.8	 1048	 1542	 2440	 2872	 2346	 1294	825.0	759.7	818.1	851.7	 1077	 1316	 1424	 1528	 1441	 1212	 1038	 1120	783.7	435.9	289.7	238.8	796.0	9999.9	9999.9	9999.9	861.1	58.67	39.61	27.43	18.83	15.79	13.88	9.793	6.744	7.083	5.021	6.390	6.170	6.367	5.125	5.193	5.534	6.251	5.765	8.491	8.758	9.979
340.0	472.0	792.3	 1018	 1258	 1844	 2585	 3209	 2647	 1554	 1054	902.3	881.1	958.5	 1180	 1374	 1555	 1659	 1617	 1413	 1190	991.6	 1051	681.3	386.5	268.0	236.0	788.8	9999.9	9999.9	9999.9	947.9	59.53	37.70	28.58	24.72	14.03	13.11	7.646	7.407	5.878	6.444	5.525	4.852	5.548	4.913	5.339	6.484	7.200	7.752	10.16	11.62
345.0	500.0	730.8	968.3	 1176	 1763	 2563	 3165	 2866	 1990	 1382	 1064	 1029	 1091	 1287	 1416	 1646	 1738	 1721	 1516	 1277	 1034	905.9	949.1	553.5	356.0	289.4	262.1	776.9	9999.9	9999.9	9999.9	 1025	62.59	43.98	32.19	21.09	16.97	12.10	9.215	7.706	7.298	6.898	4.855	5.027	6.429	6.678	7.544	6.435	7.136	9.556	12.72
350.0	415.8	632.4	898.9	 1164	 1568	 2456	 3161	 3034	 2321	 1605	 1389	 1179	 1214	 1335	 1481	 1684	 1793	 1750	 1596	 1346	 1084	901.7	899.6	862.7	478.7	344.7	276.2	257.5	792.4	9999.9	9999.9	9999.9	 1068	63.58	41.24	27.56	20.51	15.70	9.484	8.743	5.593	7.257	6.282	5.119	5.992	6.091	7.769	7.524	8.966	9.003	11.07
355.0	521.8	662.3	946.8	 1147	 1695	 2245	 3144	 3018	 2596	 1955	 1712	 1461	 1518	 1501	 1610	 1804	 1918	 1792	 1750	 1482	 1210	988.5	809.2	868.6	777.4	464.8	340.1	285.6	259.8	770.3	9999.9	9999.9	9999.9	 1134	64.75	41.35	28.95	19.18	17.19	11.14	8.447	7.310	5.300	6.534	6.677	5.942	6.164	6.844	7.726	11.13	9.446
360.0	484.0	708.9	785.6	 1211	 1656	 2140	 2855	 2979	 2538	 2392	 1986	 1722	 1686	 1692	 1718	 1817	 1875	 1883	 1797	 1536	 1274	 1081	878.9	782.8	892.6	711.7	429.5	362.9	293.0	237.3	766.3	9999.9	9999.9	9999.9	 1036	62.17	41.57	25.51	18.54	15.13	10.63	7.927	7.661	8.113	7.067	5.700	6.273	7.181	9.395	8.641	9.909
365.0	442.8	502.8	823.5	 1243	 1626	 2104	 2828	 2955	 2713	 2594	 2202	 1879	 1777	 1808	 1742	 1856	 1863	 1827	 1814	 1612	 1358	 1128	948.3	825.5	747.2	876.4	656.3	434.1	348.7	265.2	216.3	751.9	9999.9	9999.9	9999.9	 1118	59.00	37.91	26.88	20.95	15.41	9.032	10.20	7.560	6.676	6.427	6.253	7.699	6.324	7.969	9.455
370.0	407.7	523.8	883.7	 1107	 1359	 2107	 2453	 2714	 2695	 2718	 2393	 1952	 1787	 1739	 1782	 1795	 1845	 1834	 1820	 1595	 1348	 1179	 1006	843.7	774.2	782.9	865.7	606.6	425.3	319.3	229.4	183.5	738.8	9999.9	9999.9	9999.9	 1110	54.28	34.65	23.76	19.59	14.29	8.711	9.014	6.700	7.039	6.410	7.335	7.044	7.498	9.506
375.0	414.0	562.6	717.4	 1087	 1415	 1891	 2234	 2492	 2750	 2687	 2349	 1978	 1820	 1708	 1711	 1807	 1765	 1723	 1759	 1606	 1415	 1197	 1067	903.6	832.8	742.4	810.9	829.1	545.2	381.9	283.2	189.9	172.4	726.7	9999.9	9999.9	9999.9	 1132	53.30	34.41	25.19	18.41	12.06	9.701	7.871	7.635	8.416	7.255	8.303	8.568	8.168
380.0	439.5	528.0	767.2	 1076	 1349	 1659	 2114	 2399	 2702	 2751	 2296	 1947	 1820	 1712	 1645	 1681	 1706	 1727	 1692	 1514	 1365	 1221	 1055	979.3	860.7	783.8	744.4	825.3	748.3	477.0	337.1	257.6	179.6	172.4	723.7	9999.9	9999.9	9999.9	 1022	46.93	34.55	21.84	18.33	14.26	9.407	11.50	8.740	7.078	6.192	7.875	8.659
385.0	414.2	583.7	788.0	 1022	 1310	 1473	 2016	 2223	 2490	 2702	 2429	 1974	 1717	 1609	 1583	 1625	 1643	 1603	 1635	 1480	 1327	 1226	 1106	968.0	899.5	828.0	757.3	745.4	858.1	641.2	414.3	300.9	225.4	159.5	165.2	715.1	 8501	9999.9	9999.9	 1063	46.84	33.06	23.52	16.09	11.84	8.509	8.867	8.493	7.127	6.591	8.676
390.0	351.9	592.7	734.6	993.9	 1402	 1504	 1887	 2178	 2472	 2481	 2370	 1850	 1684	 1498	 1515	 1489	 1581	 1505	 1514	 1410	 1301	 1187	 1085	969.6	905.1	866.7	802.6	774.5	749.0	785.7	577.3	362.4	279.1	217.6	154.4	152.1	624.5	 7769	9999.9	9999.9	 1017	48.20	30.29	22.54	16.27	12.58	9.255	9.512	6.842	7.459	8.054
395.0	338.6	553.9	782.2	885.4	 1265	 1310	 1726	 1911	 2250	 2316	 2313	 1777	 1543	 1502	 1492	 1436	 1444	 1458	 1403	 1386	 1243	 1162	 1072	 1018	955.6	886.4	841.1	784.2	719.6	716.7	728.9	479.4	348.3	271.1	213.5	167.6	153.8	574.2	 7410	9999.9	9999.9	 1010	40.23	28.11	19.64	14.01	10.97	8.428	8.299	8.565	8.490
400.0	325.4	662.7	713.2	885.1	 1078	 1411	 1654	 1743	 2052	 2105	 2049	 1768	 1559	 1438	 1377	 1362	 1385	 1411	 1365	 1308	 1224	 1162	 1058	978.4	941.4	904.2	851.1	819.0	760.1	687.6	709.0	656.8	424.6	328.9	278.0	220.1	153.5	163.4	563.9	 7192	9999.9	9999.9	892.5	42.55	25.46	18.06	12.47	10.92	9.524	9.040	9.446
405.0	286.7	561.5	712.3	861.4	 1023	 1245	 1526	 1685	 1988	 2131	 1994	 1693	 1533	 1404	 1398	 1348	 1354	 1322	 1295	 1254	 1200	 1126	997.6	972.4	924.0	923.6	877.1	847.5	775.2	703.9	666.7	671.8	599.5	404.1	341.9	269.8	212.7	185.7	159.6	560.8	 6294	9999.9	9999.9	792.3	40.93	27.14	18.96	16.36	10.61	9.642	7.564
410.0	312.5	491.3	742.7	808.1	903.3	 1183	 1566	 1581	 1702	 1897	 1900	 1723	 1349	 1368	 1230	 1292	 1305	 1272	 1251	 1171	 1151	 1043	999.1	964.0	925.0	908.3	860.0	843.4	807.1	724.0	672.4	645.0	672.5	552.0	398.0	325.8	253.3	207.1	162.2	158.7	492.5	 6219	9999.9	9999.9	749.8	38.84	23.79	18.41	14.71	10.46	9.619
415.0	364.0	543.6	738.2	853.2	924.7	 1162	 1352	 1503	 1564	 1848	 1752	 1548	 1388	 1277	 1235	 1217	 1214	 1138	 1167	 1112	 1037	 1024	971.3	938.0	906.3	898.2	866.1	850.6	812.6	759.4	696.6	639.5	617.6	674.2	479.0	363.3	293.6	226.9	188.8	146.7	137.2	473.9	 5984	9999.9	9999.9	743.9	34.06	21.11	15.32	12.14	10.01
420.0	332.4	533.1	619.3	710.0	882.5	 1020	 1226	 1372	 1390	 1623	 1705	 1416	 1322	 1185	 1149	 1220	 1148	 1125	 1077	 1031	 1016	969.5	915.9	905.5	855.4	862.6	835.3	840.2	793.1	752.0	717.5	658.1	601.2	626.1	611.0	418.1	328.0	257.1	212.4	161.1	126.7	124.6	446.0	 5858	9999.9	9999.9	639.1	33.18	21.04	17.14	12.72
425.0	330.1	347.2	608.0	697.1	788.7	880.5	 1137	 1282	 1393	 1479	 1516	 1380	 1221	 1224	 1170	 1090	 1083	 1077	 1004	 1009	975.6	915.5	891.6	870.4	853.9	832.5	825.9	829.3	791.1	769.7	731.7	665.1	623.3	574.7	603.2	524.9	363.8	285.7	223.7	186.9	141.9	101.4	105.2	429.5	 5461	9999.9	9999.9	578.1	30.64	20.83	14.73
430.0	191.3	395.7	645.6	715.4	847.4	830.7	 1045	 1107	 1314	 1426	 1448	 1437	 1247	 1215	 1099	 1039	 1017	 1022	990.2	924.4	911.3	879.8	842.3	833.5	824.1	809.4	819.4	782.6	798.4	756.7	712.5	670.3	611.4	574.4	545.3	564.7	426.5	313.6	257.9	196.2	159.2	113.7	92.93	91.36	394.6	 5058	9999.9	9999.9	519.3	30.21	20.97
435.0	284.9	427.7	521.0	683.3	791.9	875.7	949.7	 1074	 1179	 1354	 1391	 1234	 1153	 1087	 1105	 1050	993.0	964.3	931.8	891.9	859.6	843.3	810.4	772.6	774.7	787.2	798.9	781.1	755.8	728.2	716.4	672.7	631.1	571.0	528.4	505.0	507.3	363.1	272.3	214.2	173.1	141.6	96.64	83.21	86.54	366.0	 4918	9999.9	9999.9	507.6	29.15
440.0	261.4	417.4	421.4	640.7	738.6	808.7	967.9	 1061	 1144	 1200	 1255	 1286	 1177	 1054	 1023	989.6	953.3	859.1	860.0	863.4	810.5	764.2	787.4	751.6	746.8	745.6	746.2	732.9	734.1	728.5	704.2	658.7	627.0	599.0	523.6	468.7	447.4	430.7	309.4	228.4	185.6	153.4	117.1	85.99	75.16	73.40	359.7	 4990	9999.9	9999.9	458.2
445.0	282.5	440.2	565.7	593.2	615.1	722.5	784.1	993.7	 1032	 1073	 1176	 1219	 1149	995.6	 1005	 1006	881.1	884.0	813.5	799.0	742.0	735.1	726.1	712.7	717.7	702.8	711.1	701.6	717.0	689.0	680.2	657.5	627.0	582.5	537.5	468.0	422.7	437.8	359.9	264.4	202.6	168.2	130.3	98.99	81.40	67.36	73.45	357.2	 5124	9999.9	9999.9
450.0	275.8	338.3	504.4	611.2	684.3	714.2	686.2	897.3	962.8	 1064	 1143	 1166	 1039	919.9	955.4	925.4	910.3	831.4	797.8	738.1	687.7	691.8	691.0	683.9	686.1	688.8	667.1	678.2	687.6	684.8	649.8	621.0	607.2	565.7	528.9	473.3	418.0	383.8	369.7	311.0	216.5	167.3	141.5	109.7	89.23	71.85	58.57	71.91	359.3	 4794	9999.9
455.0	294.7	434.2	442.7	518.5	780.1	676.4	807.8	784.2	948.3	 1037	 1085	 1051	 1029	926.3	854.8	840.8	845.6	752.9	729.8	684.7	642.1	644.3	634.1	632.2	622.5	631.9	625.7	626.4	625.6	628.4	642.9	599.4	564.6	541.5	519.4	455.6	389.1	344.1	319.5	331.3	252.3	191.3	151.7	119.2	96.83	83.57	71.44	60.66	65.30	339.6	 4802
460.0	246.9	342.5	393.4	503.6	574.8	674.7	683.6	694.3	796.1	913.8	 1011	961.5	983.0	915.4	826.6	795.3	742.1	738.7	646.2	630.2	608.1	595.9	593.8	575.2	584.7	572.2	601.2	585.6	577.6	593.0	575.9	554.1	531.4	541.6	486.9	437.9	398.9	348.3	298.8	295.5	284.2	207.2	166.8	134.0	114.8	92.77	79.68	67.61	52.41	63.95	341.4
465.0	264.9	362.6	379.4	494.5	522.8	653.8	644.3	665.4	730.4	818.1	966.1	886.5	885.0	792.5	749.3	720.1	711.1	686.5	633.1	591.7	572.7	548.3	525.9	556.8	527.2	548.2	539.9	569.6	534.5	562.4	543.2	528.3	512.4	487.4	454.9	425.2	372.6	330.9	286.3	260.6	270.0	249.5	183.7	140.0	122.7	107.0	88.13	77.53	64.75	56.10	64.85
470.0	254.7	195.0	437.0	427.1	592.4	604.5	512.3	618.7	670.8	798.3	835.8	851.4	847.8	747.8	719.9	704.7	689.4	590.3	566.2	549.2	521.5	522.8	515.3	494.4	509.0	493.1	503.0	499.4	491.4	505.8	497.5	505.5	474.8	457.1	435.0	405.6	361.1	312.4	278.9	249.4	234.8	234.0	204.3	151.4	125.9	105.7	101.1	81.65	65.83	58.39	54.14
475.0	274.7	296.1	325.2	380.3	498.0	449.8	613.4	585.4	638.2	755.5	749.9	845.4	789.9	706.7	688.8	653.5	630.3	529.5	547.7	507.9	492.4	451.6	442.9	433.5	452.4	446.3	448.4	455.5	445.6	467.4	452.3	454.3	442.9	426.3	412.7	365.6	328.2	297.0	276.3	240.0	217.0	212.3	212.3	174.1	129.6	109.4	94.56	88.38	72.69	64.29	54.68
480.0	161.5	267.9	392.0	427.2	423.9	452.8	458.1	590.0	583.2	617.7	660.0	697.3	734.4	655.6	611.5	565.1	573.6	516.8	500.5	467.3	416.6	406.7	420.3	424.7	435.9	404.5	402.4	415.7	425.4	436.3	416.8	410.2	400.9	394.6	380.5	349.1	322.8	281.6	253.0	224.9	213.8	199.7	193.2	187.1	141.6	115.5	106.8	86.11	77.14	69.14	55.41
485.0	158.5	295.8	329.8	348.5	391.6	485.9	461.2	489.0	494.1	576.1	630.1	675.8	672.3	617.3	557.3	543.0	532.1	508.2	456.4	417.3	414.2	394.1	382.5	386.4	374.0	370.6	391.6	390.2	383.7	391.2	374.0	395.4	372.2	373.4	354.9	332.3	314.1	266.9	250.5	228.2	194.3	187.2	166.2	189.2	167.8	130.0	106.3	89.77	77.00	70.12	61.36
490.0	234.1	232.4	288.5	332.2	359.7	403.1	415.9	478.2	546.2	551.8	626.1	645.1	608.0	537.2	551.7	508.9	491.7	474.0	409.3	383.2	364.7	364.8	350.8	343.9	339.0	354.2	362.8	361.6	370.2	349.4	358.0	338.7	352.7	341.9	331.0	323.9	280.7	256.7	242.6	218.0	192.7	187.1	173.7	156.6	169.9	154.2	112.5	95.43	79.40	72.86	62.90
495.0	178.4	187.8	199.4	302.7	346.2	335.0	357.0	406.3	447.3	492.0	541.0	580.5	591.6	533.8	501.7	457.4	467.8	415.4	379.7	343.4	350.2	352.9	336.7	337.3	323.0	329.8	334.7	325.8	323.6	330.4	320.2	330.0	326.5	323.3	297.7	289.4	261.6	246.0	225.5	196.5	189.0	170.4	158.3	148.3	148.4	149.2	128.6	96.42	85.34	79.01	62.56
500.0	180.4	157.3	178.7	287.3	298.9	339.0	300.5	379.9	380.6	524.0	523.0	551.5	543.9	486.4	489.9	469.5	446.7	411.6	365.6	339.3	295.7	291.2	294.2	309.8	276.8	295.9	301.3	301.4	298.6	305.5	306.2	295.4	310.2	283.8	295.0	261.7	254.8	233.5	220.2	194.0	176.1	170.4	149.8	145.5	128.9	142.3	137.8	104.4	82.17	76.24	68.85
505.0	106.4	129.4	188.4	233.1	279.9	310.3	342.1	342.4	404.8	477.3	434.4	471.4	478.2	420.4	427.1	423.4	398.6	384.5	337.0	296.6	287.9	284.7	272.1	266.6	266.9	272.9	275.3	268.9	276.8	276.3	269.4	270.6	273.8	269.6	262.1	245.7	223.4	212.7	198.6	179.1	170.3	154.0	147.0	135.1	124.6	114.6	124.9	112.1	93.40	74.87	64.82
510.0	136.0	131.6	182.0	219.4	309.1	233.7	332.3	262.0	317.2	398.6	399.1	452.7	453.4	431.4	427.4	392.5	366.5	348.9	314.7	265.0	275.3	264.6	247.8	235.9	241.8	245.6	247.6	238.6	258.9	248.9	239.8	237.9	248.0	242.1	230.5	218.5	206.4	194.9	181.1	169.8	161.9	138.2	136.2	122.5	110.4	102.2	109.2	111.7	100.4	79.05	67.89
515.0	98.43	173.1	180.9	146.7	226.9	284.9	282.5	278.4	309.1	387.8	371.2	400.3	411.4	376.8	362.6	376.0	346.5	310.4	280.7	256.1	248.0	226.2	218.9	208.2	210.0	214.8	216.6	219.1	217.0	216.6	224.0	217.9	226.4	220.1	223.3	210.3	191.8	173.4	161.6	150.2	145.5	127.9	125.7	112.8	101.8	96.83	93.07	100.1	102.7	84.75	61.54
520.0	87.44	123.3	144.1	198.4	196.6	233.1	240.9	294.8	287.1	313.7	318.5	325.3	381.9	348.1	351.6	319.5	313.0	293.6	260.1	240.4	213.6	199.3	206.3	203.8	196.8	191.2	193.4	198.3	184.8	200.2	187.5	192.8	185.6	193.7	194.5	185.8	176.1	157.6	145.3	129.9	127.2	120.0	120.6	106.8	104.3	90.96	86.37	82.98	90.43	84.96	69.40
525.0	105.1	92.54	172.2	123.8	204.7	202.9	213.0	257.3	222.9	269.9	278.2	305.8	306.2	308.0	291.4	282.4	276.4	267.2	240.8	220.5	203.6	188.8	177.4	172.3	168.1	171.0	177.1	176.9	164.7	171.7	175.3	164.6	170.7	168.1	157.7	165.6	153.2	137.3	134.6	128.3	121.9	107.8	102.0	98.00	93.70	82.46	86.32	75.86	75.43	76.19	79.19
530.0	53.18	143.1	113.4	111.2	185.9	187.6	180.1	171.2	197.3	255.5	258.4	260.5	296.5	284.6	289.1	269.4	245.8	214.1	211.4	194.3	168.0	165.6	161.4	165.0	163.9	156.3	156.6	149.0	154.8	149.2	150.8	153.1	147.2	147.6	153.5	153.2	133.0	139.1	118.2	119.2	105.9	95.96	88.51	89.00	82.88	85.30	76.37	69.86	68.36	69.04	74.83
535.0	96.87	87.66	129.6	134.4	159.3	167.4	200.4	191.9	198.3	207.3	216.2	252.9	248.6	260.6	251.8	251.1	226.4	188.4	196.8	170.0	159.8	161.8	160.6	150.1	144.5	143.1	132.9	134.9	137.6	140.1	135.5	132.6	132.1	136.3	132.7	125.5	116.4	115.5	108.5	102.2	99.45	90.42	88.64	83.82	77.27	71.90	67.38	65.72	62.33	58.75	61.64
540.0	75.63	62.69	147.4	135.3	124.3	139.8	166.1	164.4	177.3	197.0	219.4	220.7	230.8	218.8	251.6	232.4	221.1	202.5	179.4	157.5	158.0	140.0	132.0	130.8	123.3	120.4	119.8	121.7	120.3	117.3	124.2	117.7	123.4	120.7	116.6	109.8	107.8	103.3	96.78	88.09	87.69	84.04	77.27	74.13	73.47	72.45	63.63	58.35	55.68	50.91	52.32
545.0	79.43	107.0	110.8	77.69	108.3	124.9	148.8	138.1	160.0	193.5	189.4	198.0	195.4	199.3	253.6	307.2	206.1	166.0	151.9	125.8	132.1	121.0	121.8	114.1	103.3	114.4	109.5	111.1	111.8	108.9	108.3	102.0	114.1	101.4	108.8	105.6	94.91	93.01	86.91	81.77	81.18	72.42	68.58	70.31	63.65	63.11	58.75	54.81	51.42	51.78	43.77
550.0	42.55	109.6	147.4	74.38	71.80	111.0	144.6	134.3	128.3	167.2	165.3	165.6	203.4	181.8	185.9	450.4	259.9	148.4	135.5	128.2	119.8	107.6	103.5	96.54	97.24	101.6	100.9	97.97	102.5	95.02	104.2	97.45	93.15	96.71	96.80	88.39	88.67	82.54	80.22	74.76	70.01	67.07	71.18	62.07	58.74	57.05	55.64	50.81	47.35	47.32	40.53
